  day sst(K) H(W/m2) LE(W/m2) TAU(m2/s2)
   126.250   302.228    33.681    97.052     0.000
   126.500   299.889    16.399    84.767     0.000
   126.750   299.175     1.449    26.385     0.000
   127.000   300.004    -0.669    18.204     0.000
   127.250   303.127    21.569    40.751     0.000
   127.500   300.179    13.083    78.130     0.000
   127.750   299.852    -0.732    56.444     0.000
   128.000   300.526    -1.345    47.453     0.000
   128.250   302.852    16.756    74.272     0.000
   128.500   300.817     5.949    70.297     0.000
   128.750   299.916    -2.458    61.242     0.000
   129.000   300.269    -3.188    49.272     0.000
   129.250   302.061    16.690   101.595     0.000
   129.500   300.699     7.549   118.938     0.000
   129.750   300.033    -1.758    52.593     0.000
   130.000   301.121    -2.508    29.183     0.000
   130.250   303.098    14.589    50.352     0.000
   130.500   300.817     4.920    42.184     0.000
   130.750   300.227    -1.435    15.302     0.000
   131.000   301.420    -1.629    13.508     0.000
   131.250   302.421    17.796    53.440     0.000
   131.500   300.595     5.081    58.573     0.000
   131.750   299.955    -0.516    31.978     0.000
   132.000   300.525    -0.845    31.438     0.000
   132.250   302.822    16.878    56.711     0.000
   132.500   301.168     4.175    51.522     0.000
   132.750   300.129    -1.903    23.638     0.000
   133.000   300.149    -3.030    20.786     0.000
   133.250   303.157    12.292    48.358     0.000
   133.500   301.117     4.724    25.258     0.000
   133.750   300.529    -0.936    25.105     0.000
   134.000   301.174    -1.048    21.084     0.000
   134.250   302.371    10.118    32.467     0.000
   134.500   301.238     1.954    23.538     0.000
   134.750   300.748    -2.059    28.706     0.000
   135.000   300.183    -1.090    44.488     0.000
   135.250   301.228     9.986    93.698     0.000
   135.500   300.427    35.760   120.927     0.000
   135.750   299.153     0.611    46.188     0.000
   136.000   300.065    -1.542    14.388     0.000
   136.250   301.995    29.932    74.953     0.000
   136.500   300.288     8.324    53.183     0.000
   136.750   300.521    -2.939    40.512     0.000
   137.000   300.884    -3.832    24.562     0.000
   137.250   300.525    -0.137    14.940     0.000
   137.500   299.873     2.825    31.055     0.000
   137.750   300.025    -3.653     8.354     0.000
   138.000   300.635    -0.553    13.182     0.000
   138.250   302.327    10.133    20.696     0.000
   138.500   300.321     4.058    22.552     0.000
   138.750   300.349     6.712    46.224     0.000
   139.000   299.668    14.698    51.881     0.000
   139.250   301.256    23.702    68.652     0.000
   139.500   300.393     3.036    46.923     0.000
   139.750   299.665    -1.192    19.829     0.000
   140.000   299.261    -2.217    22.855     0.000
   140.250   301.317     3.545    33.072     0.000
   140.500   299.952     3.586    27.726     0.000
   140.750   300.079    -0.617    11.060     0.000
   141.000   300.559    -1.520    12.389     0.000
   141.250   301.707     8.864    38.590     0.000
   141.500   300.548     1.658    39.777     0.000
   141.750   299.634    -0.203    25.022     0.000
   142.000   300.464     1.944    46.363     0.000
   142.250   301.717    16.955    65.325     0.000
   142.500   300.613     3.127    46.415     0.000
   142.750   300.086    -6.303    50.776     0.000
   143.000   301.292    -5.621    36.880     0.000
   143.250   301.866     0.581    50.294     0.000
   143.500   300.642    -3.875    40.674     0.000
   143.750   300.495    -4.609    29.379     0.000
   144.000   301.026    -4.682    35.615     0.000
   144.250   301.198     0.981    61.982     0.000
   144.500   299.428    -0.753    72.945     0.000
   144.750   298.344     5.197    45.845     0.000
   145.000   298.149    14.924    41.285     0.000
   145.250   299.881    19.198    45.218     0.000
   145.500   298.298    12.342    46.005     0.000
   145.750   297.390     5.183    35.605     0.000
   146.000   297.597    13.746    70.418     0.000
   146.250   300.431    33.161   105.960     0.000
   146.500   299.176    21.657    95.333     0.000
   146.750   298.620     6.848    57.900     0.000
   147.000   298.573     6.868    52.242     0.000
   147.250   301.410    24.423    81.438     0.000
   147.500   299.426    14.639    69.922     0.000
   147.750   298.951     3.232    44.015     0.000
   148.000   299.473     5.444    53.498     0.000
   148.250   301.839    22.162    73.536     0.000
   148.500   300.356    11.835    68.685     0.000
   148.750   299.601     2.742    48.030     0.000
   149.000   300.047     3.362    45.493     0.000
   149.250   301.228    15.071    48.270     0.000
   149.500   300.369     7.738    54.475     0.000
   149.750   299.958     1.252    46.792     0.000
   150.000   300.333     0.711    38.367     0.000
   150.250   300.694    17.448    67.253     0.000
   150.500   300.224     9.119    65.595     0.000
   150.750   299.924    -0.419    50.517     0.000
   151.000   300.157    -1.595    36.412     0.000
   151.250   301.235     7.959    47.272     0.000
   151.500   300.087     0.014    37.858     0.000
   151.750   300.572    -2.215    32.047     0.000
   152.000   300.434    -1.700    35.604     0.000
   152.250   301.121    -0.123    45.263     0.000
   152.500   300.842    -1.281    50.590     0.000
   152.750   300.560    -6.046    19.899     0.000
   153.000   301.259    -5.237    22.052     0.000
   153.250   302.695    10.912    45.748     0.000
   153.500   301.295     1.226    45.605     0.000
   153.750   300.540    -6.169    18.868     0.000
   154.000   300.990    -4.822    20.115     0.000
   154.250   301.913     7.326    27.404     0.000
   154.500   300.347    -0.246    30.199     0.000
   154.750   300.372    -5.131    18.695     0.000
   155.000   299.925    -4.967    23.780     0.000
   155.250   301.784    -3.382    30.329     0.000
   155.500   299.951    -3.650    30.680     0.000
   155.750   299.849    -4.133    25.705     0.000
   156.000   299.887    -3.108    27.829     0.000
   156.250   300.139    27.095    67.460     0.000
   156.500   298.564    -0.358    30.803     0.000
   156.750   298.523     3.659    18.964     0.000
   157.000   298.659     1.756    20.514     0.000
   157.250   299.862    10.488    25.505     0.000
   157.500   299.227    16.839    40.414     0.000
   157.750   298.797     7.354    35.982     0.000
   158.000   298.796    -2.028    12.388     0.000
   158.250   300.403    10.693    42.679     0.000
   158.500   299.358    12.404    46.708     0.000
   158.750   298.902     0.774    21.402     0.000
   159.000   299.678    -2.545     2.022     0.000
   159.250   300.431     2.735     0.039     0.000
   159.500   299.844    -7.498     0.580     0.000
   159.750   299.678    -9.942    -2.183     0.000
   160.000   299.948   -11.860     0.868     0.000
   160.250   301.283    -4.031    40.925     0.000
   160.500   300.363    -5.582    33.505     0.000
   160.750   300.225    -7.536    28.974     0.000
   161.000   300.699    -6.646    30.845     0.000
   161.250   301.987    -2.848    33.668     0.000
   161.500   300.966    -3.715    28.697     0.000
   161.750   300.219    -6.080    19.574     0.000
   162.000   300.572    -6.717    -0.576     0.000
   162.250   301.805    -3.315     2.829     0.000
   162.500   300.680    -3.489     3.435     0.000
   162.750   300.130    -5.838     8.775     0.000
   163.000   301.178    -6.404    10.436     0.000
   163.250   302.900    -0.927    17.492     0.000
   163.500   301.719    -1.821    11.917     0.000
   163.750   300.834    -4.091     8.436     0.000
   164.000   301.935    -4.695     5.890     0.000
   164.250   303.682     3.873    13.485     0.000
   164.500   301.819    -3.868     9.378     0.000
   164.750   301.138    -5.131     9.373     0.000
   165.000   301.801    -5.505     3.265     0.000
   165.250   304.284     2.005    17.725     0.000
   165.500   302.393    -1.195    10.442     0.000
   165.750   301.458    -5.860     7.065     0.000
   166.000   302.119    -6.362     4.555     0.000
   166.250   303.971     7.122    14.078     0.000
   166.500   302.412    -0.248     7.168     0.000
   166.750   301.618    -7.617    11.745     0.000
   167.000   302.171    -6.807     9.050     0.000
   167.250   304.441     0.614    21.025     0.000
   167.500   302.219    -2.546     2.155     0.000
   167.750   301.469    -8.129     3.124     0.000
   168.000   302.117    -9.504    -1.402     0.000
   168.250   303.863    -1.743     6.323     0.000
   168.500   302.493    -2.548     1.051     0.000
   168.750   301.952    -8.409     0.665     0.000
   169.000   302.508    -8.158    -2.930     0.000
   169.250   303.633    -5.912     6.378     0.000
   169.500   302.154    -5.606     4.695     0.000
   169.750   301.756    -8.488     6.985     0.000
   170.000   301.848    -8.345     3.853     0.000
   170.250   301.647    -5.042    13.633     0.000
   170.500   302.076    -3.788     4.441     0.000
   170.750   301.033    -6.068     9.409     0.000
   171.000   302.072    -6.793    11.346     0.000
   171.250   304.051    -2.575    39.648     0.000
   171.500   302.024    -4.058    14.258     0.000
