  z[m] p[mb] tp[K] q[g/kg] u[m/s] v[m/s]
0    64   1006.91
     25.0000      1004.0552        297.6370         15.7461           0.      0.
     75.0000       998.3649        297.5300         15.0316           0.      0.
    127.8481       992.3723        297.5572         14.8880           0.      0.
    186.7169       985.7272        297.5974         14.7635           0.      0.
    252.2922       978.3627        297.6542         14.6509           0.      0.
    325.3382       970.2057        297.7293         14.5055           0.      0.
    406.7058       961.1772        297.8333         14.3140           0.      0.
    497.3432       951.1931        297.9806         14.0486           0.      0.
    598.3063       940.1624        298.1937         13.6893           0.      0.
    710.7715       927.9907        298.4952         13.2273           0.      0.
    836.0493       914.5750        298.8949         12.6876           0.      0.
    975.5992       899.8113        299.3979         12.0923           0.      0.
   1131.0472       883.5909        300.0122         11.4568           0.      0.
   1304.2045       865.8032        300.7341         10.7931           0.      0.
   1497.0885       846.3330        301.5612         10.0927           0.      0.
   1711.9467       825.0666        302.4750          9.3652           0.      0.
   1951.2823       801.8940        303.4876          8.5968           0.      0.
   2217.8840       776.7092        304.6114          7.7886           0.      0.
   2514.8582       749.4156        305.8475          6.9541           0.      0.
   2845.6648       719.9338        307.1984          6.1126           0.      0.
   3214.1582       688.2047        308.6885          5.2708           0.      0.
   3624.6318       654.1985        310.3246          4.4484           0.      0.
   4081.8684       617.9269        312.1318          3.6677           0.      0.
   4581.8682       580.1483        314.1667          2.9270           0.      0.
   5081.8682       544.2670        316.2063          2.2961           0.      0.
   5581.8682       510.1997        318.2108          1.7648           0.      0.
   6081.8682       477.8695        320.1436          1.3252           0.      0.
   6581.8682       447.1970        321.9332          0.9828           0.      0.
   7081.8682       418.1009        323.5309          0.7305           0.      0.
   7581.8682       390.5055        324.9262          0.5500           0.      0.
   8081.8682       364.3428        326.1479          0.4151           0.      0.
   8581.8682       339.5494        327.2565          0.3092           0.      0.
   9081.8682       316.0610        328.2376          0.2266           0.      0.
   9581.8682       293.8155        329.0824          0.1640           0.      0.
  10081.8682       272.7578        329.8263          0.1157           0.      0.
  10581.8682       252.8394        330.5249          0.0794           0.      0.
  11081.8682       234.0201        331.2916          0.0523           0.      0.
  11581.8682       216.2684        332.2749          0.0327           0.      0.
  12081.8682       199.5577        333.6517          0.0193           0.      0.
  12581.8682       183.8689        335.7265          0.0113           0.      0.
  13081.8682       169.1911        338.8286          0.0078           0.      0.
  13581.8682       155.5159        343.4500          0.0066           0.      0.
  14081.8682       142.8385        349.7839          0.0061           0.      0.
  14581.8682       131.1493        358.0338          0.0060           0.      0.
  15081.8682       120.4188        367.5633          0.0059           0.      0.
  15581.8682       110.5960        377.9699          0.0058           0.      0.
  16081.8682       101.6055        388.2935          0.0056           0.      0.
  16581.8672        93.3705        398.8584          0.0052           0.      0.
  17081.8672        85.8229        408.9345          0.0048           0.      0.
  17581.8672        78.9045        419.6607          0.0042           0.      0.
  18081.8672        72.5610        430.1578          0.0036           0.      0.
  18581.8672        66.7455        442.2130          0.0029           0.      0.
  19081.8672        61.4116        453.7988          0.0023           0.      0.
  19581.8672        56.5097        465.1194          0.0021           0.      0.
  20081.8672        52.0019        476.2428          0.0021           0.      0.
  20590.0547        47.7903        488.0259          0.0021           0.      0.
  21149.0605        43.5575        502.8546          0.0021           0.      0.
  21763.9668        39.3520        521.3270          0.0018           0.      0.
  22440.3633        35.2283        544.1782          0.0011           0.      0.
  23184.4004        31.2362        570.0585          0.0008           0.      0.
  24002.8398        27.4104        598.4990          0.0006           0.      0.
  24903.1230        23.7784        629.5886          0.0004           0.      0.
  25893.4355        20.3824        670.0928          0.0000           0.      0.
  26982.7793        17.2630        716.6926          0.0000           0.      0.
1000    64   1006.91
     25.0000      1004.0552        297.6370         15.7461           0.      0.
     75.0000       998.3649        297.5300         15.0316           0.      0.
    127.8481       992.3723        297.5572         14.8880           0.      0.
    186.7169       985.7272        297.5974         14.7635           0.      0.
    252.2922       978.3627        297.6542         14.6509           0.      0.
    325.3382       970.2057        297.7293         14.5055           0.      0.
    406.7058       961.1772        297.8333         14.3140           0.      0.
    497.3432       951.1931        297.9806         14.0486           0.      0.
    598.3063       940.1624        298.1937         13.6893           0.      0.
    710.7715       927.9907        298.4952         13.2273           0.      0.
    836.0493       914.5750        298.8949         12.6876           0.      0.
    975.5992       899.8113        299.3979         12.0923           0.      0.
   1131.0472       883.5909        300.0122         11.4568           0.      0.
   1304.2045       865.8032        300.7341         10.7931           0.      0.
   1497.0885       846.3330        301.5612         10.0927           0.      0.
   1711.9467       825.0666        302.4750          9.3652           0.      0.
   1951.2823       801.8940        303.4876          8.5968           0.      0.
   2217.8840       776.7092        304.6114          7.7886           0.      0.
   2514.8582       749.4156        305.8475          6.9541           0.      0.
   2845.6648       719.9338        307.1984          6.1126           0.      0.
   3214.1582       688.2047        308.6885          5.2708           0.      0.
   3624.6318       654.1985        310.3246          4.4484           0.      0.
   4081.8684       617.9269        312.1318          3.6677           0.      0.
   4581.8682       580.1483        314.1667          2.9270           0.      0.
   5081.8682       544.2670        316.2063          2.2961           0.      0.
   5581.8682       510.1997        318.2108          1.7648           0.      0.
   6081.8682       477.8695        320.1436          1.3252           0.      0.
   6581.8682       447.1970        321.9332          0.9828           0.      0.
   7081.8682       418.1009        323.5309          0.7305           0.      0.
   7581.8682       390.5055        324.9262          0.5500           0.      0.
   8081.8682       364.3428        326.1479          0.4151           0.      0.
   8581.8682       339.5494        327.2565          0.3092           0.      0.
   9081.8682       316.0610        328.2376          0.2266           0.      0.
   9581.8682       293.8155        329.0824          0.1640           0.      0.
  10081.8682       272.7578        329.8263          0.1157           0.      0.
  10581.8682       252.8394        330.5249          0.0794           0.      0.
  11081.8682       234.0201        331.2916          0.0523           0.      0.
  11581.8682       216.2684        332.2749          0.0327           0.      0.
  12081.8682       199.5577        333.6517          0.0193           0.      0.
  12581.8682       183.8689        335.7265          0.0113           0.      0.
  13081.8682       169.1911        338.8286          0.0078           0.      0.
  13581.8682       155.5159        343.4500          0.0066           0.      0.
  14081.8682       142.8385        349.7839          0.0061           0.      0.
  14581.8682       131.1493        358.0338          0.0060           0.      0.
  15081.8682       120.4188        367.5633          0.0059           0.      0.
  15581.8682       110.5960        377.9699          0.0058           0.      0.
  16081.8682       101.6055        388.2935          0.0056           0.      0.
  16581.8672        93.3705        398.8584          0.0052           0.      0.
  17081.8672        85.8229        408.9345          0.0048           0.      0.
  17581.8672        78.9045        419.6607          0.0042           0.      0.
  18081.8672        72.5610        430.1578          0.0036           0.      0.
  18581.8672        66.7455        442.2130          0.0029           0.      0.
  19081.8672        61.4116        453.7988          0.0023           0.      0.
  19581.8672        56.5097        465.1194          0.0021           0.      0.
  20081.8672        52.0019        476.2428          0.0021           0.      0.
  20590.0547        47.7903        488.0259          0.0021           0.      0.
  21149.0605        43.5575        502.8546          0.0021           0.      0.
  21763.9668        39.3520        521.3270          0.0018           0.      0.
  22440.3633        35.2283        544.1782          0.0011           0.      0.
  23184.4004        31.2362        570.0585          0.0008           0.      0.
  24002.8398        27.4104        598.4990          0.0006           0.      0.
  24903.1230        23.7784        629.5886          0.0004           0.      0.
  25893.4355        20.3824        670.0928          0.0000           0.      0.
  26982.7793        17.2630        716.6926          0.0000           0.      0.
