 day sst(K) H(W/m2) LE(W/m2) TAU(m2/s2)
   169.979    302.52        20.912       193.248     0.000
   170.104    299.61       -8.5566       106.628     0.000
   170.229    296.30       -20.045        50.206     0.000
   170.354    294.72       -16.809        32.600     0.000
   170.479    295.85        8.9575        65.706     0.000
   170.604    299.28        43.028       155.724     0.000
   170.729    303.66        61.861       256.706     0.000
   170.854    305.90        52.874       271.325     0.000
   170.979    304.94        21.777       193.481     0.000
   171.104    302.60       -5.8040       103.805     0.000
   171.229    299.86       -20.681        50.499     0.000
   171.354    298.17       -23.290        34.741     0.000
   171.479    298.63        1.9122        64.533     0.000
   171.604    301.20        39.989       158.217     0.000
   171.729    304.99        68.697       267.531     0.000
   171.854    306.97        59.733       284.869     0.000
   171.979    305.92        38.157       192.336     0.000
   172.104    303.26        20.390        80.585     0.000
   172.229    300.21        13.749        27.907     0.000
   172.354    298.13        6.4499        26.128     0.000
   172.479    297.87        13.033        62.368     0.000
   172.604    299.55        43.429       137.886     0.000
   172.729    302.67        71.591       235.193     0.000
   172.854    304.60        66.111       257.695     0.000
   172.979    303.78        36.782       182.452     0.000
   173.104    301.17       0.89957        84.749     0.000
   173.229    297.72       -11.316        21.617     0.000
   173.354    295.02       -9.7792        11.214     0.000
   173.479    295.11        19.358        48.688     0.000
   173.604    297.41        68.878       141.848     0.000
   173.729    300.90        97.270       230.992     0.000
   173.854    302.22        89.262       228.878     0.000
   173.979    300.83        57.721       144.727     0.000
   174.104    298.11        39.251        58.187     0.000
   174.229    295.37        30.960        13.697     0.000
   174.354    294.25        18.517         5.970     0.000
   174.479    294.77        8.9537        25.517     0.000
   174.604    296.49        20.238        93.275     0.000
   174.729    298.25        38.105       169.941     0.000
   174.854    299.00        42.399       187.859     0.000
   174.979    298.39        29.940       134.667     0.000
   175.104    297.53        17.669        62.642     0.000
   175.229    296.67        15.695        21.151     0.000
   175.354    296.01        14.157        11.636     0.000
   175.479    296.58        29.767        50.182     0.000
   175.604    298.74        53.399       149.570     0.000
   175.729    301.93        78.471       247.817     0.000
   175.854    303.75        72.512       265.956     0.000
   175.979    302.86        45.575       178.299     0.000
   176.104    300.20        12.216        84.151     0.000
   176.229    297.36       -9.8952        23.481     0.000
   176.354    295.49       -14.351        13.347     0.000
   176.479    295.96        10.483        40.384     0.000
   176.604    298.23        53.324       126.601     0.000
   176.729    301.73        87.386       223.793     0.000
   176.854    303.84        77.276       246.630     0.000
   176.979    302.46        47.010       175.843     0.000
   177.104    299.40        16.336        75.348     0.000
   177.229    295.59        15.302        25.541     0.000
   177.354    293.46        18.016        25.145     0.000
   177.479    292.65        30.281        55.513     0.000
   177.604    294.22        54.820       126.844     0.000
   177.729    297.10        82.046       194.327     0.000
   177.854    299.72        82.357       214.350     0.000
   177.979    299.27        51.482       143.459     0.000
   178.104    297.22        13.389        63.825     0.000
   178.229    294.56       -3.6478        15.088     0.000
   178.354    293.28       -4.0764        13.579     0.000
   178.479    294.88        22.409        63.744     0.000
   178.604    298.45        61.977       170.964     0.000
   178.729    302.65        81.271       271.236     0.000
   178.854    303.91        63.405       269.895     0.000
   178.979    302.13        32.639       174.997     0.000
   179.104    299.16        14.174        81.964     0.000
   179.229    296.60        13.231        35.050     0.000
   179.354    295.45        12.106        24.001     0.000
   179.479    296.17        22.630        49.696     0.000
   179.604    298.42        52.955       135.481     0.000
   179.729    301.38        79.016       231.310     0.000
   179.854    302.97        77.733       249.174     0.000
   179.979    301.83        40.094       165.338     0.000
   180.104    299.27        12.397        70.009     0.000
   180.229    296.41        4.1764         9.970     0.000
   180.354    295.01        6.6159         3.002     0.000
   180.479    295.62        20.966        35.275     0.000
   180.604    297.67        47.385       109.955     0.000
   180.729    300.99        78.131       197.106     0.000
   180.854    302.99        73.746       208.541     0.000
   180.979    301.77        51.173       143.026     0.000
   181.104    298.38        20.137        57.637     0.000
   181.229    294.76        7.8487        12.829     0.000
   181.354    293.26        7.6195        10.403     0.000
   181.479    294.32        24.226        51.308     0.000
   181.604    297.43        64.271       150.865     0.000
   181.729    301.73        88.213       260.596     0.000
   181.854    304.52        82.504       283.591     0.000
   181.979    304.15        39.525       193.141     0.000
   182.104    302.14      -0.80039        82.104     0.000
   182.229    299.61       -24.587        19.198     0.000
   182.354    298.14       -28.339         9.564     0.000
   182.479    298.71       -4.9226        61.854     0.000
   182.604    301.48        35.571       180.511     0.000
   182.729    305.51        62.400       309.151     0.000
   182.854    307.94        50.896       329.830     0.000
   182.979    306.90        27.924       232.044     0.000
   183.104    304.12      -0.10374       122.086     0.000
   183.229    300.61       -8.8854        65.846     0.000
   183.354    298.01       -12.808        59.647     0.000
   183.479    297.99        8.2299        97.727     0.000
   183.604    299.77        48.679       195.615     0.000
   183.729    303.00        77.253       300.502     0.000
   183.854    304.48        72.295       313.180     0.000
   183.979    302.98        38.882       208.235     0.000
   184.104    300.14        8.3001        85.946     0.000
   184.229    297.07       -5.1179        19.219     0.000
   184.354    295.75       -10.140        14.424     0.000
   184.479    297.06        11.244        65.483     0.000
   184.604    300.05        49.433       174.273     0.000
   184.729    303.56        85.233       273.034     0.000
   184.854    304.04        77.426       276.645     0.000
   184.979    300.90        50.937       175.571     0.000
   185.104    296.46        19.624        74.228     0.000
   185.229    292.43        7.5798        24.282     0.000
   185.354    290.36        2.6888        14.864     0.000
   185.479    290.24        18.040        42.182     0.000
   185.604    292.10        67.674       123.020     0.000
   185.729    295.05        118.38       222.163     0.000
   185.854    297.28        120.13       247.058     0.000
   185.979    296.40        74.151       173.910     0.000
   186.104    293.75        21.033        84.219     0.000
   186.229    290.40       -1.2995        27.861     0.000
   186.354    288.60       -4.6632        17.940     0.000
   186.479    289.89        26.825        54.819     0.000
   186.604    293.20        82.728       151.928     0.000
   186.729    297.51        123.27       252.849     0.000
   186.854    299.48        103.37       253.302     0.000
   186.979    298.21        58.845       158.766     0.000
   187.104    295.57        23.376        54.147     0.000
   187.229    292.67        4.5192         6.249     0.000
   187.354    291.19       -4.9100         3.377     0.000
   187.479    292.26        10.466        45.933     0.000
   187.604    295.28        59.765       144.718     0.000
   187.729    299.42        96.296       256.327     0.000
   187.854    301.56        87.293       278.051     0.000
   187.979    300.42        41.245       196.245     0.000
   188.104    297.76       0.61665        78.557     0.000
   188.229    294.73       -15.125         3.609     0.000
   188.354    293.22       -12.014       -18.462     0.000
   188.479    293.83        11.076        25.266     0.000
   188.604    296.37        61.343       119.129     0.000
   188.729    299.94        106.03       227.980     0.000
   188.854    302.13        104.98       246.971     0.000
   188.979    301.46        54.503       176.070     0.000
   189.104    299.36        4.8674        65.824     0.000
   189.229    296.98       -19.701        -1.646     0.000
   189.354    296.02       -18.935       -19.920     0.000
   189.479    296.79        1.1099        27.744     0.000
   189.604    299.34        42.687       144.521     0.000
   189.729    302.91        80.295       259.763     0.000
   189.854    305.33        75.120       280.386     0.000
   189.979    304.51        36.748       190.575     0.000
   190.104    301.76       -7.6630        99.523     0.000
   190.229    298.31       -20.321        36.174     0.000
   190.354    296.16       -17.028        26.294     0.000
   190.479    296.26        15.999        50.196     0.000
   190.604    298.91        64.168       145.519     0.000
   190.729    302.84        99.236       235.966     0.000
   190.854    305.23        85.048       241.046     0.000
   190.979    304.17        37.843       161.047     0.000
   191.104    301.53       -2.8682        72.849     0.000
   191.229    298.43       -19.885        30.577     0.000
   191.354    296.71       -19.491        19.916     0.000
   191.479    297.27        12.140        54.003     0.000
   191.604    299.60        61.161       137.344     0.000
   191.729    301.57        82.372       200.239     0.000
   191.854    301.11        66.350       186.758     0.000
   191.979    298.98        29.972       109.064     0.000
   192.104    297.23        9.3250        52.651     0.000
   192.229    296.19       -3.6869        25.305     0.000
   192.354    295.78       -5.9024        26.093     0.000
   192.479    296.28        3.2047        40.982     0.000
   192.604    297.86        33.811        93.144     0.000
   192.729    300.10        60.572       144.046     0.000
   192.854    301.67        60.946       161.298     0.000
   192.979    301.41        35.025       119.972     0.000
   193.104    300.03        2.5509        63.688     0.000
   193.229    298.28       -10.726        29.621     0.000
   193.354    297.29       -13.763        22.043     0.000
   193.479    298.04        10.372        65.391     0.000
   193.604    300.52        61.803       154.606     0.000
   193.729    303.97        102.37       250.485     0.000
   193.854    305.97        94.098       267.503     0.000
   193.979    305.09        45.750       189.005     0.000
   194.104    302.61        1.5681        93.769     0.000
   194.229    299.67       -15.116        29.700     0.000
   194.354    297.89       -12.625        11.354     0.000
   194.479    298.58        15.506        52.806     0.000
   194.604    301.38        62.299       159.789     0.000
   194.729    305.37        95.878       276.499     0.000
   194.854    307.57        91.362       289.025     0.000
   194.979    306.32        54.549       194.482     0.000
   195.104    303.34        23.048        86.270     0.000
   195.229    299.77        4.7468        38.549     0.000
   195.354    297.53      -0.32421        38.655     0.000
   195.479    297.95        19.907        76.322     0.000
   195.604    300.52        64.903       166.486     0.000
   195.729    304.19        105.68       254.970     0.000
   195.854    305.59        95.948       256.294     0.000
   195.979    303.95        56.917       155.884     0.000
   196.104    301.08        11.766        51.517     0.000
   196.229    298.25       -7.9195         0.827     0.000
   196.354    296.84       -9.8301        -3.760     0.000
   196.479    297.02        2.4133        21.108     0.000
   196.604    298.90        17.202        80.335     0.000
   196.729    302.15        33.083       179.380     0.000
   196.854    304.45        31.889       221.197     0.000
   196.979    303.67        26.014       175.795     0.000
   197.104    300.86        7.4590        85.618     0.000
   197.229    297.74       -4.4292        19.827     0.000
   197.354    296.27       -12.215        13.859     0.000
   197.479    297.09        1.4658        55.993     0.000
   197.604    299.98        36.828       165.301     0.000
   197.729    303.91        65.509       277.578     0.000
   197.854    306.22        57.468       296.440     0.000
   197.979    304.75        25.076       198.821     0.000
   198.104    301.69       -2.0743        85.317     0.000
   198.229    298.30       -9.2626        15.691     0.000
   198.354    296.66       -6.2150         5.650     0.000
   198.479    296.30        6.4755        33.011     0.000
   198.604    297.77        40.451       128.932     0.000
   198.729    300.30        76.275       228.040     0.000
   198.854    302.15        106.15       296.966     0.000
   198.979    302.57        112.10       303.082     0.000
