 day sst(K) H(W/m2) LE(W/m2) TAU(m2/s2)
   243.000    300.21        9.5000        86.806     0.000
   243.125    300.24        10.000        92.593     0.000
   243.250    300.28        8.5000        98.380     0.000
   243.375    300.31        9.0000        98.380     0.000
   243.500    300.35        9.5000        98.380     0.000
   243.625    300.38        10.000        98.380     0.000
   243.750    300.41        10.000        99.826     0.000
   243.875    300.45        10.000       101.273     0.000
   244.000    300.48        7.5000        91.146     0.000
   244.125    300.47        5.0000        81.019     0.000
   244.250    300.46        4.5000        81.019     0.000
   244.375    300.45        4.0000        81.019     0.000
   244.500    300.45        2.0000        82.465     0.000
   244.625    300.44        0.0000        83.912     0.000
   244.750    300.43        2.0000        76.678     0.000
   244.875    300.42        4.0000        69.444     0.000
   245.000    300.41        3.5000        59.317     0.000
   245.125    300.43        3.0000        49.190     0.000
   245.250    300.44        2.5000        47.743     0.000
   245.375    300.46        2.0000        46.296     0.000
   245.500    300.48        2.0000        54.977     0.000
   245.625    300.49        2.0000        63.657     0.000
   245.750    300.51        3.0000        69.444     0.000
   245.875    300.52        4.0000        75.231     0.000
   246.000    300.54        4.5000        78.125     0.000
   246.125    300.54        5.0000        81.019     0.000
   246.250    300.54        7.0000        88.252     0.000
   246.375    300.53        9.0000        95.486     0.000
   246.500    300.53        10.000        99.826     0.000
   246.625    300.53        11.000       104.167     0.000
   246.750    300.53        10.500       114.294     0.000
   246.875    300.52        10.000       124.421     0.000
   247.000    300.52        9.5000       128.762     0.000
   247.125    300.53        9.0000       133.102     0.000
   247.250    300.54        8.5000       128.762     0.000
   247.375    300.55        8.0000       124.421     0.000
   247.500    300.57        8.5000       122.975     0.000
   247.625    300.58        9.0000       121.528     0.000
   247.750    300.59        8.5000       111.400     0.000
   247.875    300.60        8.0000       101.273     0.000
   248.000    300.61        7.5000        94.039     0.000
   248.125    300.57        7.0000        86.806     0.000
   248.250    300.53        7.0000        91.146     0.000
   248.375    300.48        7.0000        95.486     0.000
   248.500    300.44        8.5000       107.060     0.000
   248.625    300.40        10.000       118.634     0.000
   248.750    300.36        10.500       127.315     0.000
   248.875    300.31        11.000       135.995     0.000
   249.000    300.27        12.000       143.229     0.000
   249.125    300.28        13.000       150.463     0.000
   249.250    300.29        14.000       157.697     0.000
   249.375    300.30        15.000       164.931     0.000
   249.500    300.32        15.000       156.250     0.000
   249.625    300.33        15.000       147.569     0.000
   249.750    300.34        13.500       144.676     0.000
   249.875    300.35        12.000       141.782     0.000
   250.000    300.36        12.000       144.676     0.000
   250.125    300.36        12.000       147.569     0.000
   250.250    300.36        12.000       149.016     0.000
   250.375    300.36        12.000       150.463     0.000
   250.500    300.36        12.500       162.037     0.000
   250.625    300.35        13.000       173.611     0.000
   250.750    300.35        12.500       179.398     0.000
   250.875    300.35        12.000       185.185     0.000
   251.000    300.35        10.000       182.292     0.000
   251.125    300.34        8.0000       179.398     0.000
   251.250    300.33        7.0000       176.505     0.000
   251.375    300.32        6.0000       173.611     0.000
   251.500    300.30        5.5000       175.058     0.000
   251.625    300.29        5.0000       176.505     0.000
   251.750    300.28        5.5000       175.058     0.000
   251.875    300.27        6.0000       173.611     0.000
   252.000    300.26        5.5000       173.611     0.000
   252.125    300.26        5.0000       173.611     0.000
   252.250    300.26        4.0000       164.931     0.000
   252.375    300.26        3.0000       156.250     0.000
   252.500    300.26        2.5000       138.889     0.000
   252.625    300.25        2.0000       121.528     0.000
   252.750    300.25        2.0000       108.507     0.000
   252.875    300.25        2.0000        95.486     0.000
   253.000    300.25        3.5000       107.060     0.000
   253.125    300.28        5.0000       118.634     0.000
   253.250    300.30        6.0000       130.208     0.000
   253.375    300.33        7.0000       141.782     0.000
   253.500    300.35        7.5000       134.549     0.000
   253.625    300.38        8.0000       127.315     0.000
   253.750    300.41        7.5000       114.294     0.000
   253.875    300.43        7.0000       101.273     0.000
   254.000    300.46        5.5000        92.593     0.000
   254.125    300.48        4.0000        83.912     0.000
   254.250    300.50        3.5000        76.678     0.000
   254.375    300.52        3.0000        69.444     0.000
   254.500    300.54        3.0000        65.104     0.000
   254.625    300.55        3.0000        60.764     0.000
   254.750    300.57        3.0000        66.551     0.000
   254.875    300.59        3.0000        72.338     0.000
   255.000    300.61        3.0000        78.125     0.000
   255.125    300.61        3.0000        83.912     0.000
   255.250    300.60        3.0000        85.359     0.000
   255.375    300.60        3.0000        86.806     0.000
   255.500    300.60        6.5000        98.380     0.000
   255.625    300.59        10.000       109.954     0.000
   255.750    300.59        10.500       105.613     0.000
   255.875    300.58        11.000       101.273     0.000
   256.000    300.58        8.0000        88.252     0.000
   256.125    300.57        5.0000        75.231     0.000
   256.250    300.56        8.5000        92.593     0.000
   256.375    300.55        12.000       109.954     0.000
   256.500    300.55        12.500       112.847     0.000
   256.625    300.54        13.000       115.741     0.000
   256.750    300.53        9.5000       104.167     0.000
   256.875    300.52        6.0000        92.593     0.000
   257.000    300.51        7.0000        98.380     0.000
   257.125    300.49        8.0000       104.167     0.000
   257.250    300.47        8.5000       117.188     0.000
   257.375    300.44        9.0000       130.208     0.000
   257.500    300.42        10.000       134.549     0.000
   257.625    300.40        11.000       138.889     0.000
   257.750    300.38        13.000       146.123     0.000
   257.875    300.35        15.000       153.356     0.000
   258.000    300.33        15.500       164.931     0.000
   258.125    300.35        16.000       176.505     0.000
   258.250    300.36        13.000       183.738     0.000
   258.375    300.38        10.000       190.972     0.000
   258.500    300.40        8.0000       198.206     0.000
   258.625    300.41        6.0000       205.440     0.000
   258.750    300.43        6.0000       193.866     0.000
   258.875    300.44        6.0000       182.292     0.000
   259.000    300.46        5.5000       156.250     0.000
   259.125    300.43        5.0000       130.208     0.000
   259.250    300.41        4.0000       115.741     0.000
   259.375    300.39        3.0000       101.273     0.000
   259.500    300.36        3.0000       101.273     0.000
   259.625    300.33        3.0000       101.273     0.000
   259.750    300.31        4.0000       108.507     0.000
   259.875    300.29        5.0000       115.741     0.000
   260.000    300.26        7.5000       124.421     0.000
   260.125    300.26        10.000       133.102     0.000
   260.250    300.25        12.000       131.655     0.000
   260.375    300.25        14.000       130.208     0.000
   260.500    300.24        15.000       133.102     0.000
   260.625    300.24        16.000       135.995     0.000
   260.750    300.24        15.500       138.889     0.000
   260.875    300.23        15.000       141.782     0.000
   261.000    300.23        14.000       151.910     0.000
   261.125    300.24        13.000       162.037     0.000
   261.250    300.26        11.000       156.250     0.000
   261.375    300.27        9.0000       150.463     0.000
   261.500    300.28        8.5000       135.995     0.000
   261.625    300.29        8.0000       121.528     0.000
   261.750    300.31        7.5000       121.528     0.000
   261.875    300.32        7.0000       121.528     0.000
   262.000    300.33        5.5000       128.762     0.000
   262.125    300.37        4.0000       135.995     0.000
   262.250    300.41        3.5000       138.889     0.000
   262.375    300.45        3.0000       141.782     0.000
   262.500    300.49        3.0000       140.336     0.000
   262.625    300.54        3.0000       138.889     0.000
   262.750    300.58        3.0000       137.442     0.000
   262.875    300.62        3.0000       137.442     0.000
   263.000    300.66        3.0000       137.442     0.000
