 z[m] p[mb] tp[K] q[g/kg] u[m/s] v[m/s]
 243.,  19,  1012.  day,levels,pres0
   181.594   991.250   297.300    16.909     2.179     3.096
   593.683   945.500   298.587    15.229     2.232     2.166
  1079.167   893.790   300.676    13.217     1.460     0.885
  1649.556   836.060   303.634    11.247     0.466     0.319
  2313.877   772.820   307.075     9.575    -0.935     0.604
  3075.972   705.220   310.380     7.792    -1.214     1.669
  3932.822   635.050   313.884     5.947    -1.595     2.305
  4877.740   564.480   319.024     4.696    -2.557     1.605
  5899.537   495.730   324.662     3.144    -2.408     1.208
  6980.710   430.710   329.821     1.870    -1.879     1.100
  8101.404   370.780   334.148     1.155    -1.224     0.642
  9242.177   316.720   337.510     0.575    -0.736     0.168
 10385.816   268.820   340.219     0.225    -1.997    -0.227
 11518.124   226.980   341.941     0.086    -4.635    -1.408
 12629.559   190.820   343.658     0.033    -8.858    -2.684
 13716.346   159.870   347.545     0.013   -13.057    -1.526
 14783.751   133.550   355.377     0.006   -13.377     0.388
 15842.498   111.290   369.166     0.005   -11.806     0.482
 16907.232    92.560   390.753     0.006   -11.790     0.399
 243.125,  19,  1012.  day,levels,pres0
   181.576   991.250   297.270    16.912     2.028     2.781
   593.642   945.500   298.601    15.133     2.017     2.032
  1079.196   893.790   300.794    13.063     1.466     0.966
  1649.695   836.060   303.692    11.068     0.649     0.748
  2313.924   772.820   306.970     9.536    -0.688     0.885
  3075.791   705.220   310.287     7.901    -1.048     1.877
  3932.543   635.050   313.870     6.033    -1.317     2.597
  4877.437   564.480   318.991     4.770    -2.185     1.737
  5899.161   495.730   324.620     3.217    -2.155     1.416
  6980.262   430.710   329.794     1.924    -1.704     1.119
  8100.944   370.780   334.152     1.189    -0.627     0.719
  9241.759   316.720   337.522     0.587    -0.046     0.062
 10385.361   268.820   340.181     0.226    -1.267    -0.325
 11517.523   226.980   341.891     0.085    -4.185    -1.266
 12628.868   190.820   343.653     0.033    -8.902    -2.475
 13715.909   159.870   347.716     0.013   -13.359    -1.488
 14784.162   133.550   355.770     0.007   -13.457     0.245
 15843.742   111.290   369.337     0.005   -11.812     0.256
 16908.814    92.560   390.819     0.006   -11.888     0.371
 243.25,  19,  1012.  day,levels,pres0
   181.569   991.250   297.281    16.782     1.752     2.497
   593.655   945.500   298.681    14.916     1.683     1.934
  1079.353   893.790   300.973    12.832     1.509     1.173
  1650.057   836.060   303.817    10.828     1.051     1.495
  2314.363   772.820   306.984     9.407    -0.029     1.560
  3076.250   705.220   310.322     7.865    -0.622     2.463
  3933.172   635.050   313.968     6.028    -1.247     3.313
  4878.211   564.480   318.976     4.840    -1.797     1.870
  5899.987   495.730   324.630     3.339    -1.929     1.231
  6981.253   430.710   329.849     1.982    -1.947     0.669
  8102.061   370.780   334.158     1.189    -0.494     0.350
  9242.980   316.720   337.579     0.584     0.620    -0.389
 10386.726   268.820   340.208     0.224    -0.278    -0.637
 11518.980   226.980   341.920     0.085    -3.836    -1.512
 12630.688   190.820   343.853     0.032    -9.532    -2.225
 13718.828   159.870   348.224     0.013   -14.157    -1.244
 14789.109   133.550   356.606     0.007   -13.385     0.039
 15850.326   111.290   369.605     0.005   -11.684     0.095
 16916.123    92.560   391.067     0.006   -11.840     0.631
 243.375,  19,  1012.  day,levels,pres0
   181.663   991.250   297.464    16.623     1.742     2.671
   593.941   945.500   298.848    14.669     1.633     2.051
  1079.785   893.790   301.070    12.612     1.569     1.297
  1650.539   836.060   303.853    10.599     1.491     1.982
  2314.881   772.820   307.044     9.297     0.621     2.171
  3077.047   705.220   310.531     7.751    -0.198     2.943
  3934.544   635.050   314.217     5.939    -1.322     3.766
  4880.060   564.480   319.057     4.858    -1.667     2.130
  5902.162   495.730   324.736     3.421    -2.197     1.104
  6984.043   430.710   330.093     2.026    -2.695     0.697
  8105.763   370.780   334.447     1.184    -1.073     0.307
  9247.715   316.720   337.902     0.569     0.633    -0.718
 10392.543   268.820   340.530     0.221    -0.140    -1.039
 11525.964   226.980   342.302     0.084    -4.671    -2.102
 12639.451   190.820   344.577     0.032   -11.301    -2.535
 13730.373   159.870   349.276     0.013   -15.400    -1.118
 14803.936   133.550   357.715     0.007   -13.173    -0.021
 15867.126   111.290   369.823     0.005   -11.117     0.539
 16933.701    92.560   391.408     0.006   -11.309     1.379
 243.5,  19,  1012.  day,levels,pres0
   181.794   991.250   297.683    16.597     2.132     2.431
   594.316   945.500   299.001    14.599     2.125     1.880
  1080.322   893.790   301.146    12.520     2.020     1.190
  1651.073   836.060   303.788    10.608     2.121     1.862
  2315.349   772.820   307.047     9.303     1.302     2.102
  3077.772   705.220   310.772     7.571     0.031     3.086
  3935.883   635.050   314.497     5.731    -1.568     4.014
  4881.907   564.480   319.164     4.811    -1.571     2.325
  5904.336   495.730   324.843     3.423    -2.163     1.326
  6986.660   430.710   330.252     2.036    -2.976     1.630
  8109.025   370.780   334.667     1.193    -1.697     0.809
  9251.867   316.720   338.212     0.542     0.041    -1.072
 10397.632   268.820   340.783     0.206    -0.732    -1.806
 11532.010   226.980   342.631     0.081    -6.078    -3.145
 12646.926   190.820   345.135     0.032   -13.136    -3.397
 13739.841   159.870   349.989     0.013   -16.414    -1.442
 14815.453   133.550   358.350     0.007   -13.105     0.387
 15879.630   111.290   369.847     0.005   -10.168     1.651
 16946.271    92.560   391.431     0.006   -10.390     2.242
 243.625,  19,  1012.  day,levels,pres0
   181.859   991.250   297.775    16.677     2.360     2.198
   594.473   945.500   298.987    14.810     2.638     1.713
  1080.435   893.790   301.022    12.770     2.603     1.007
  1651.034   836.060   303.634    10.995     2.788     1.460
  2315.246   772.820   307.044     9.454     2.039     1.724
  3077.885   705.220   310.946     7.451     0.449     3.174
  3936.426   635.050   314.693     5.556    -1.602     4.356
  4882.742   564.480   319.204     4.764    -1.368     2.444
  5905.144   495.730   324.799     3.394    -1.956     1.712
  6987.208   430.710   330.155     1.977    -2.920     2.842
  8109.153   370.780   334.524     1.211    -1.983     1.438
  9251.778   316.720   338.230     0.530    -0.700    -1.641
 10397.438   268.820   340.706     0.192    -1.464    -2.981
 11531.484   226.980   342.511     0.079    -7.272    -4.454
 12646.357   190.820   345.236     0.031   -14.169    -4.458
 13739.764   159.870   350.204     0.013   -17.109    -1.864
 14815.319   133.550   358.085     0.007   -13.111     0.976
 15878.608   111.290   369.503     0.005    -8.811     2.372
 16944.146    92.560   390.985     0.006    -9.162     2.671
 243.75,  19,  1012.  day,levels,pres0
   181.857   991.250   297.759    16.747     2.411     2.139
   594.378   945.500   298.826    14.971     3.014     1.710
  1080.088   893.790   300.796    13.028     2.998     0.835
  1650.436   836.060   303.472    11.416     3.142     0.999
  2314.602   772.820   307.038     9.718     2.396     1.482
  3077.392   705.220   311.017     7.497     0.602     3.684
  3936.132   635.050   314.775     5.469    -1.627     4.925
  4882.592   564.480   319.238     4.744    -1.096     2.814
  5904.869   495.730   324.698     3.347    -1.659     2.321
  6986.377   430.710   329.949     1.868    -2.918     3.892
  8107.243   370.780   334.105     1.226    -2.450     1.840
  9248.711   316.720   337.966     0.541    -1.527    -2.524
 10393.426   268.820   340.409     0.185    -2.151    -4.754
 11526.301   226.980   342.102     0.078    -8.157    -5.898
 12640.206   190.820   345.053     0.032   -14.990    -5.044
 13733.275   159.870   350.176     0.013   -17.985    -1.585
 14808.074   133.550   357.603     0.007   -13.178     1.472
 15869.717   111.290   368.854     0.004    -7.660     2.470
 16933.736    92.560   390.557     0.006    -7.872     2.529
 243.875,  19,  1012.  day,levels,pres0
   181.824   991.250   297.707    16.744     2.505     2.219
   594.280   945.500   298.796    14.908     3.281     1.758
  1079.884   893.790   300.683    13.156     3.344     0.929
  1650.132   836.060   303.410    11.670     3.366     0.843
  2314.348   772.820   307.049     9.996     2.651     1.427
  3077.314   705.220   311.095     7.510     0.775     3.963
  3936.275   635.050   314.879     5.347    -1.513     5.211
  4882.964   564.480   319.320     4.695    -1.127     3.453
  5905.172   495.730   324.595     3.262    -1.553     3.039
  6986.088   430.710   329.741     1.699    -2.999     4.512
  8105.919   370.780   333.744     1.162    -3.053     2.209
  9246.099   316.720   337.585     0.524    -2.523    -3.102
 10389.645   268.820   340.104     0.174    -3.498    -5.983
 11521.463   226.980   341.772     0.076    -8.766    -6.799
 12634.447   190.820   344.818     0.032   -15.405    -4.890
 13727.047   159.870   350.117     0.013   -18.372    -0.882
 14801.640   133.550   357.526     0.007   -12.990     1.797
 15862.829   111.290   368.616     0.004    -6.677     2.137
 16926.645    92.560   390.658     0.006    -6.950     2.130
 244.,  19,  1012.  day,levels,pres0
   181.821   991.250   297.685    16.835     2.900     2.045
   594.329   945.500   298.865    14.983     3.702     1.506
  1080.053   893.790   300.744    13.179     3.914     0.870
  1650.419   836.060   303.468    11.676     3.657     0.668
  2314.738   772.820   307.070    10.074     3.054     1.461
  3077.785   705.220   311.145     7.405     1.079     4.166
  3936.883   635.050   314.979     5.189    -1.450     5.507
  4883.734   564.480   319.379     4.592    -1.520     3.985
  5905.736   495.730   324.444     3.148    -1.674     3.477
  6985.912   430.710   329.507     1.491    -3.061     4.608
  8104.825   370.780   333.502     1.040    -3.482     2.058
  9243.989   316.720   337.265     0.462    -3.376    -3.431
 10386.581   268.820   339.879     0.152    -4.689    -6.262
 11517.774   226.980   341.628     0.073    -9.313    -6.898
 12630.338   190.820   344.703     0.032   -15.398    -3.873
 13722.819   159.870   350.160     0.014   -17.925     0.177
 14797.676   133.550   357.658     0.007   -12.333     2.004
 15859.639   111.290   369.021     0.004    -6.078     1.512
 16924.566    92.560   391.047     0.006    -6.473     1.679
 244.125,  19,  1012.  day,levels,pres0
   181.843   991.250   297.688    17.018     3.144     1.721
   594.389   945.500   298.842    15.209     3.928     0.974
  1080.164   893.790   300.778    13.242     4.173     0.337
  1650.656   836.060   303.583    11.527     3.842     0.222
  2315.090   772.820   307.112     9.937     3.373     1.425
  3078.108   705.220   311.133     7.248     1.379     4.301
  3937.176   635.050   315.020     5.084    -1.420     5.563
  4883.994   564.480   319.351     4.501    -1.984     4.155
  5905.564   495.730   324.247     2.981    -1.944     3.675
  6985.032   430.710   329.347     1.298    -2.984     4.416
  8103.240   370.780   333.303     0.931    -3.766     1.552
  9241.734   316.720   337.106     0.401    -4.195    -3.496
 10383.833   268.820   339.763     0.139    -5.412    -6.053
 11514.833   226.980   341.634     0.069    -9.950    -6.188
 12627.653   190.820   344.860     0.031   -15.256    -2.266
 13720.736   159.870   350.388     0.014   -16.537     1.269
 14796.138   133.550   357.786     0.007   -11.113     2.167
 15858.829   111.290   369.397     0.005    -6.095     0.930
 16924.418    92.560   391.134     0.006    -6.596     1.328
 244.25,  19,  1012.  day,levels,pres0
   181.823   991.250   297.645    17.078     2.704     1.258
   594.247   945.500   298.685    15.279     3.277     0.444
  1079.793   893.790   300.629    13.298     3.553    -0.388
  1650.106   836.060   303.559    11.384     3.492    -0.392
  2314.546   772.820   307.219     9.671     3.308     1.200
  3077.691   705.220   311.216     7.054     1.460     4.412
  3936.840   635.050   315.048     5.004    -1.437     5.494
  4883.527   564.480   319.273     4.382    -2.291     4.184
  5904.638   495.730   324.089     2.825    -2.176     3.667
  6983.656   430.710   329.275     1.257    -2.604     4.305
  8101.675   370.780   333.291     0.841    -4.018     1.181
  9240.279   316.720   337.213     0.356    -5.208    -3.425
 10382.578   268.820   339.782     0.137    -6.687    -5.726
 11513.790   226.980   341.746     0.067   -10.948    -4.779
 12627.474   190.820   345.290     0.030   -14.780    -0.690
 13722.123   159.870   350.958     0.014   -14.567     1.844
 14799.052   133.550   358.218     0.007    -9.407     2.142
 15862.574   111.290   369.526     0.005    -6.167     0.680
 16927.973    92.560   390.860     0.006    -6.861     1.525
 244.375,  19,  1012.  day,levels,pres0
   181.850   991.250   297.703    16.998     1.804     1.397
   594.245   945.500   298.615    15.183     2.256     0.635
  1079.684   893.790   300.605    13.184     2.595    -0.509
  1649.965   836.060   303.592    11.274     2.670    -0.687
  2314.487   772.820   307.308     9.535     2.601     0.744
  3077.692   705.220   311.215     6.973     0.982     4.197
  3936.729   635.050   314.996     4.935    -1.911     5.326
  4883.194   564.480   319.214     4.255    -2.644     4.067
  5904.118   495.730   324.081     2.690    -2.173     3.517
  6983.305   430.710   329.420     1.232    -2.000     4.024
  8102.052   370.780   333.600     0.769    -4.202     1.135
  9241.712   316.720   337.546     0.330    -6.125    -3.116
 10385.020   268.820   340.051     0.136    -8.290    -4.904
 11517.310   226.980   342.130     0.064   -11.849    -3.010
 12632.794   190.820   346.026     0.030   -13.930     0.640
 13729.971   159.870   351.834     0.013   -13.013     2.391
 14809.235   133.550   358.875     0.007    -8.046     2.391
 15873.789   111.290   369.558     0.005    -6.030     0.855
 16938.611    92.560   390.403     0.006    -6.775     2.020
 244.5,  19,  1012.  day,levels,pres0
   181.925   991.250   297.841    16.913     1.008     1.778
   594.428   945.500   298.663    15.103     1.416     0.980
  1079.978   893.790   300.737    13.034     1.743    -0.541
  1650.556   836.060   303.816    11.198     1.747    -0.830
  2315.472   772.820   307.457     9.548     1.338     0.380
  3078.792   705.220   311.130     7.100    -0.108     3.744
  3937.595   635.050   314.874     4.988    -2.441     4.985
  4883.830   564.480   319.182     4.205    -2.899     3.850
  5904.780   495.730   324.152     2.637    -1.936     3.239
  6984.422   430.710   329.645     1.197    -1.317     3.763
  8104.123   370.780   333.956     0.741    -4.134     1.302
  9244.907   316.720   337.857     0.332    -6.598    -2.672
 10389.133   268.820   340.281     0.138    -9.065    -3.478
 11522.426   226.980   342.508     0.063   -11.672    -0.991
 12639.507   190.820   346.639     0.029   -12.695     1.322
 13738.649   159.870   352.471     0.013   -11.833     2.958
 14819.365   133.550   359.186     0.007    -7.046     3.207
 15884.084   111.290   369.347     0.004    -5.636     1.073
 16948.771    92.560   390.526     0.006    -6.428     1.911
 244.625,  19,  1012.  day,levels,pres0
   182.028   991.250   298.016    16.878     0.416     2.246
   594.708   945.500   298.748    15.110     0.559     1.559
  1080.448   893.790   300.888    13.017     0.723    -0.286
  1651.425   836.060   304.090    11.211     0.743    -0.711
  2316.914   772.820   307.698     9.592     0.105     0.392
  3080.600   705.220   311.170     7.123    -1.471     3.375
  3939.547   635.050   314.928     5.025    -3.283     4.489
  4886.130   564.480   319.369     4.137    -3.554     3.256
  5907.711   495.730   324.402     2.514    -1.991     2.726
  6988.027   430.710   329.830     1.178    -0.939     3.394
  8108.069   370.780   333.967     0.771    -3.912     1.340
  9249.004   316.720   337.924     0.353    -6.611    -2.127
 10393.474   268.820   340.353     0.141    -8.929    -1.832
 11527.324   226.980   342.776     0.063   -10.900     0.508
 12645.237   190.820   346.884     0.029   -11.657     1.608
 13745.066   159.870   352.661     0.013   -10.820     3.259
 14825.675   133.550   358.913     0.007    -6.325     3.450
 15889.373   111.290   368.918     0.004    -5.611     0.673
 16954.457    92.560   391.269     0.006    -6.425     0.982
 244.75,  19,  1012.  day,levels,pres0
   182.089   991.250   298.108    16.921     0.366     2.804
   594.935   945.500   298.865    15.239     0.112     2.433
  1080.962   893.790   301.084    13.126    -0.078     0.504
  1652.420   836.060   304.381    11.232    -0.202    -0.321
  2318.512   772.820   307.990     9.417    -1.019     0.575
  3082.798   705.220   311.448     6.851    -2.686     2.968
  3942.309   635.050   315.127     4.950    -4.203     3.586
  4889.492   564.480   319.606     4.043    -4.391     2.119
  5911.891   495.730   324.738     2.318    -2.415     1.787
  6992.650   430.710   329.811     1.093    -1.338     2.646
  8112.045   370.780   333.612     0.779    -4.143     1.123
  9251.866   316.720   337.622     0.362    -6.894    -1.601
 10395.553   268.820   340.193     0.141    -8.688    -0.825
 11529.281   226.980   342.868     0.063   -10.428     0.892
 12647.168   190.820   346.770     0.028   -11.483     1.463
 13746.117   159.870   352.207     0.013   -10.075     3.260
 14824.694   133.550   358.018     0.006    -6.053     2.876
 15886.355   111.290   368.431     0.004    -6.315     0.142
 16951.418    92.560   391.768     0.006    -6.890     0.366
 244.875,  19,  1012.  day,levels,pres0
   182.092   991.250   298.089    17.056     0.686     2.848
   595.043   945.500   298.975    15.447     0.243     2.737
  1081.397   893.790   301.311    13.280    -0.311     1.065
  1653.416   836.060   304.729    11.184    -1.139     0.081
  2320.152   772.820   308.297     9.122    -2.271     0.641
  3085.066   705.220   311.764     6.536    -3.722     2.542
  3945.155   635.050   315.298     4.902    -4.962     2.585
  4892.900   564.480   319.832     3.985    -5.036     0.802
  5916.195   495.730   325.131     2.115    -2.873     0.627
  6997.447   430.710   329.763     1.021    -2.281     1.783
  8116.250   370.780   333.318     0.779    -4.873     0.791
  9255.031   316.720   337.302     0.361    -7.607    -1.172
 10397.953   268.820   340.065     0.138    -8.941    -0.444
 11531.556   226.980   342.925     0.061   -10.596     0.961
 12649.236   190.820   346.580     0.027   -11.809     1.711
 13747.042   159.870   351.660     0.013    -9.758     3.396
 14823.585   133.550   357.219     0.006    -6.114     2.401
 15883.536   111.290   368.071     0.004    -7.325    -0.246
 16947.711    92.560   391.496     0.006    -7.431     0.112
 245.,  19,  1012.  day,levels,pres0
   182.076   991.250   298.036    17.208     0.911     2.215
   595.009   945.500   298.949    15.590     0.793     2.107
  1081.409   893.790   301.342    13.436    -0.015     0.810
  1653.613   836.060   304.875    11.141    -1.712    -0.055
  2320.645   772.820   308.477     8.877    -3.307     0.499
  3085.783   705.220   311.854     6.307    -4.448     1.964
  3945.877   635.050   315.260     4.871    -5.202     1.755
  4893.643   564.480   319.898     3.955    -5.543    -0.255
  5917.299   495.730   325.322     2.005    -3.426    -0.615
  6998.564   430.710   329.603     0.984    -2.902     0.840
  8116.456   370.780   332.936     0.806    -5.611     0.645
  9254.067   316.720   336.990     0.370    -8.262    -0.432
 10396.373   268.820   340.017     0.135    -9.704     0.238
 11529.974   226.980   342.976     0.060   -11.280     1.652
 12647.494   190.820   346.426     0.026   -12.124     3.025
 13744.355   159.870   351.208     0.012    -9.445     4.282
 14819.349   133.550   356.649     0.006    -6.093     2.738
 15878.312   111.290   367.978     0.004    -7.834     0.199
 16942.107    92.560   391.316     0.006    -7.349     0.276
 245.125,  19,  1012.  day,levels,pres0
   182.027   991.250   297.945    17.270     0.733     1.400
   594.856   945.500   298.868    15.652     0.667     0.986
  1081.046   893.790   301.114    13.635    -0.095    -0.007
  1652.828   836.060   304.579    11.362    -2.117    -0.475
  2319.430   772.820   308.328     8.928    -4.194    -0.061
  3084.149   705.220   311.649     6.329    -5.068     1.108
  3943.554   635.050   314.946     4.928    -5.214     0.908
  4890.452   564.480   319.613     3.994    -5.731    -0.812
  5913.273   495.730   325.063     2.064    -3.936    -1.243
  6993.498   430.710   329.216     0.991    -2.970     0.152
  8109.979   370.780   332.491     0.771    -5.522     1.028
  9246.339   316.720   336.717     0.338    -7.811     0.525
 10388.193   268.820   340.038     0.126   -10.573     1.172
 11521.965   226.980   343.061     0.060   -12.781     2.918
 12639.348   190.820   346.250     0.026   -12.075     4.916
 13735.332   159.870   350.820     0.012    -8.434     5.642
 14809.129   133.550   356.249     0.006    -5.502     3.388
 15867.195   111.290   367.770     0.004    -7.250     1.555
 16930.613    92.560   391.259     0.006    -6.285     0.752
 245.25,  19,  1012.  day,levels,pres0
   181.951   991.250   297.828    17.221     0.389     0.488
   594.644   945.500   298.793    15.679     0.012    -0.215
  1080.642   893.790   300.927    13.745    -0.865    -1.017
  1651.994   836.060   304.257    11.535    -2.869    -1.162
  2317.999   772.820   308.071     8.926    -5.205    -0.830
  3082.073   705.220   311.387     6.312    -5.781     0.031
  3940.647   635.050   314.598     4.969    -5.533    -0.087
  4886.594   564.480   319.319     3.982    -5.945    -1.406
  5908.531   495.730   324.800     2.076    -4.192    -1.567
  6987.985   430.710   329.016     0.964    -2.894    -0.129
  8104.090   370.780   332.499     0.668    -5.126     1.475
  9240.743   316.720   336.921     0.268    -7.204     1.095
 10383.237   268.820   340.230     0.116   -11.933     1.903
 11517.846   226.980   343.379     0.062   -15.068     4.388
 12635.889   190.820   346.333     0.027   -12.309     6.769
 13731.650   159.870   350.587     0.012    -7.053     6.721
 14804.870   133.550   356.103     0.006    -4.474     3.677
 15862.693   111.290   367.752     0.004    -5.921     2.004
 16926.764    92.560   391.757     0.006    -5.095     0.584
 245.375,  19,  1012.  day,levels,pres0
   181.989   991.250   297.916    17.081    -0.137    -0.651
   594.721   945.500   298.813    15.520    -0.842    -1.218
  1080.653   893.790   300.884    13.571    -1.901    -1.678
  1651.763   836.060   304.091    11.444    -3.775    -1.643
  2317.295   772.820   307.845     8.777    -6.092    -1.683
  3080.732   705.220   311.134     6.257    -6.567    -1.248
  3938.696   635.050   314.429     4.911    -5.972    -1.374
  4884.395   564.480   319.359     3.859    -6.246    -2.394
  5906.575   495.730   324.945     2.048    -4.367    -2.403
  6986.579   430.710   329.216     0.940    -2.868    -0.561
  8103.818   370.780   333.000     0.581    -5.093     1.678
  9242.259   316.720   337.500     0.231    -7.629     1.425
 10386.327   268.820   340.585     0.124   -13.770     2.024
 11522.067   226.980   343.701     0.069   -17.204     4.874
 12641.052   190.820   346.587     0.029   -12.819     7.710
 13737.303   159.870   350.639     0.012    -6.037     7.022
 14811.225   133.550   356.524     0.006    -3.846     3.173
 15870.763   111.290   368.513     0.004    -5.155     1.187
 16936.645    92.560   392.280     0.006    -4.795    -0.405
 245.5,  19,  1012.  day,levels,pres0
   182.166   991.250   298.217    17.017    -0.734    -0.953
   595.250   945.500   299.053    15.412    -1.539    -1.368
  1081.536   893.790   301.150    13.305    -2.676    -1.918
  1652.932   836.060   304.206    11.269    -4.540    -2.076
  2318.421   772.820   307.731     8.722    -6.624    -2.451
  3081.618   705.220   311.042     6.373    -6.994    -2.553
  3939.615   635.050   314.508     4.999    -6.082    -2.674
  4885.755   564.480   319.559     3.872    -6.396    -3.524
  5908.633   495.730   325.173     2.096    -4.375    -3.532
  6989.521   430.710   329.512     0.954    -2.706    -1.414
  8108.133   370.780   333.524     0.556    -4.967     1.385
  9248.025   316.720   337.827     0.254    -8.268     1.244
 10392.772   268.820   340.643     0.150   -14.439     1.186
 11528.206   226.980   343.444     0.076   -17.283     4.116
 12646.573   190.820   346.466     0.031   -11.981     7.538
 13742.687   159.870   350.676     0.013    -4.849     6.239
 14817.775   133.550   357.273     0.006    -3.922     1.567
 15880.468   111.290   369.939     0.005    -5.691    -0.230
 16948.000    92.560   391.986     0.007    -5.721    -1.443
 245.625,  19,  1012.  day,levels,pres0
   182.326   991.250   298.477    17.025    -0.202    -0.200
   595.832   945.500   299.398    15.430    -1.050    -0.749
  1082.848   893.790   301.730    13.172    -2.513    -1.717
  1655.253   836.060   304.758    11.062    -4.821    -2.390
  2321.549   772.820   307.986     8.563    -6.773    -2.975
  3085.224   705.220   311.197     6.410    -6.991    -3.467
  3943.616   635.050   314.598     5.182    -6.203    -3.937
  4890.056   564.480   319.613     3.978    -6.262    -4.723
  5913.091   495.730   325.184     2.158    -4.028    -4.729
  6994.427   430.710   329.762     0.970    -2.399    -2.434
  8114.189   370.780   333.954     0.575    -4.780     0.418
  9254.943   316.720   337.879     0.320    -8.716     0.132
 10399.651   268.820   340.544     0.186   -13.992    -0.201
 11534.370   226.980   343.098     0.083   -15.887     2.796
 12651.725   190.820   346.187     0.033   -10.574     6.490
 13747.191   159.870   350.547     0.014    -4.281     4.810
 14822.671   133.550   357.672     0.007    -4.470    -0.310
 15886.975   111.290   370.650     0.005    -6.576    -1.612
 16954.871    92.560   391.504     0.007    -6.675    -1.750
 245.75,  19,  1012.  day,levels,pres0
   182.404   991.250   298.580    17.163     0.953     0.549
   596.135   945.500   299.576    15.548    -0.153    -0.110
  1083.607   893.790   302.073    13.283    -1.912    -1.443
  1656.670   836.060   305.111    10.963    -4.639    -2.611
  2323.490   772.820   308.150     8.453    -6.719    -3.251
  3087.431   705.220   311.249     6.516    -6.767    -3.636
  3946.021   635.050   314.626     5.411    -6.158    -4.379
  4892.589   564.480   319.616     4.030    -5.783    -5.407
  5915.622   495.730   325.167     2.167    -3.833    -5.797
  6997.215   430.710   329.933     0.986    -2.437    -3.452
  8117.600   370.780   334.134     0.641    -5.021    -0.791
  9258.369   316.720   337.667     0.408    -9.377    -1.243
 10402.289   268.820   340.263     0.214   -13.695    -1.552
 11536.063   226.980   342.801     0.089   -14.796     1.631
 12652.645   190.820   346.008     0.035    -9.929     5.115
 13747.184   159.870   350.129     0.014    -4.806     2.911
 14821.387   133.550   357.250     0.007    -5.622    -1.985
 15884.942   111.290   370.570     0.006    -7.114    -2.557
 16952.463    92.560   391.314     0.007    -7.192    -1.522
 245.875,  19,  1012.  day,levels,pres0
   182.357   991.250   298.469    17.349     1.332     0.444
   596.003   945.500   299.497    15.728     0.375    -0.167
  1083.281   893.790   301.819    13.610    -1.234    -1.500
  1655.879   836.060   304.746    11.307    -3.717    -2.566
  2322.168   772.820   307.905     8.779    -6.100    -2.857
  3085.791   705.220   311.110     6.865    -6.411    -2.798
  3944.247   635.050   314.556     5.660    -5.618    -3.965
  4890.818   564.480   319.635     4.063    -5.304    -5.652
  5914.028   495.730   325.250     2.188    -4.028    -6.558
  6995.929   430.710   330.018     1.057    -2.933    -4.077
  8116.417   370.780   334.070     0.755    -5.471    -1.511
  9256.708   316.720   337.407     0.476    -9.879    -2.001
 10399.796   268.820   340.013     0.222   -13.794    -2.015
 11532.962   226.980   342.687     0.087   -14.650     1.373
 12649.243   190.820   345.939     0.034   -10.196     3.948
 13743.072   159.870   349.739     0.014    -6.100     1.057
 14815.447   133.550   356.426     0.007    -7.111    -2.949
 15877.183   111.290   370.160     0.005    -7.620    -2.669
 16943.570    92.560   390.915     0.007    -7.811    -1.037
 246.,  19,  1012.  day,levels,pres0
   182.251   991.250   298.276    17.460     1.209    -0.188
   595.658   945.500   299.311    15.809     0.684    -0.854
  1082.451   893.790   301.351    13.824    -0.577    -2.046
  1654.100   836.060   304.078    11.804    -2.439    -2.618
  2319.359   772.820   307.435     9.326    -4.743    -2.151
  3082.322   705.220   310.872     7.256    -5.697    -1.811
  3940.387   635.050   314.400     5.843    -5.176    -3.495
  4886.627   564.480   319.509     4.194    -5.229    -5.697
  5909.703   495.730   325.240     2.336    -4.593    -7.020
  6991.584   430.710   329.953     1.225    -3.498    -4.318
  8111.752   370.780   333.881     0.889    -5.665    -1.708
  9251.472   316.720   337.224     0.513    -9.767    -1.861
 10394.272   268.820   340.023     0.222   -13.533    -1.358
 11527.911   226.980   342.969     0.084   -14.300     1.867
 12644.753   190.820   345.998     0.032   -10.313     3.192
 13738.305   159.870   349.496     0.013    -7.300    -0.206
 14808.928   133.550   355.497     0.006    -8.405    -3.187
 15867.814   111.290   369.138     0.004    -8.131    -2.046
 16931.756    92.560   390.201     0.006    -8.007    -0.211
 246.125,  19,  1012.  day,levels,pres0
   182.105   991.250   298.049    17.399     1.413    -1.175
   595.212   945.500   299.130    15.725     0.944    -1.920
  1081.590   893.790   301.034    13.819    -0.281    -2.820
  1652.637   836.060   303.741    11.894    -1.674    -2.775
  2317.298   772.820   307.172     9.515    -3.687    -1.588
  3079.712   705.220   310.611     7.491    -5.149    -1.388
  3937.090   635.050   314.081     6.024    -5.053    -2.866
  4882.405   564.480   319.134     4.395    -5.455    -4.838
  5904.589   495.730   324.980     2.518    -5.092    -6.635
  6985.734   430.710   329.701     1.372    -3.845    -4.367
  8105.065   370.780   333.596     0.942    -5.342    -1.603
  9243.984   316.720   337.032     0.503    -8.938    -1.070
 10386.568   268.820   340.096     0.217   -12.596    -0.015
 11520.801   226.980   343.260     0.083   -13.653     2.474
 12638.174   190.820   346.028     0.031   -10.404     2.712
 13731.270   159.870   349.167     0.013    -8.076    -0.983
 14800.241   133.550   354.728     0.006    -9.267    -3.357
 15856.836   111.290   368.339     0.004    -8.500    -1.542
 16919.332    92.560   389.985     0.006    -7.811     0.229
 246.25,  19,  1012.  day,levels,pres0
   182.042   991.250   297.981    17.199     1.574    -1.857
   594.983   945.500   299.023    15.568     0.773    -2.772
  1081.141   893.790   300.920    13.710    -0.498    -3.302
  1652.060   836.060   303.774    11.710    -1.783    -2.764
  2316.603   772.820   307.080     9.411    -3.583    -1.360
  3078.526   705.220   310.306     7.577    -5.041    -1.376
  3935.232   635.050   313.860     6.138    -5.038    -2.327
  4880.041   564.480   318.976     4.497    -5.444    -3.677
  5901.677   495.730   324.750     2.628    -5.298    -5.551
  6982.098   430.710   329.459     1.428    -3.885    -3.962
  8100.869   370.780   333.506     0.908    -4.758    -1.256
  9239.842   316.720   337.173     0.465    -7.933    -0.037
 10383.111   268.820   340.375     0.204   -11.499     1.562
 11517.938   226.980   343.337     0.082   -12.828     3.071
 12635.303   190.820   345.942     0.031   -10.488     2.432
 13727.868   159.870   348.912     0.012    -9.062    -1.616
 14796.227   133.550   354.583     0.005   -10.171    -3.458
 15853.311   111.290   368.835     0.004    -8.612    -1.251
 16916.574    92.560   390.024     0.006    -7.270     0.338
 246.375,  19,  1012.  day,levels,pres0
   182.033   991.250   297.988    17.077     1.400    -1.989
   594.945   945.500   299.017    15.447     0.199    -3.039
  1081.065   893.790   300.903    13.693    -1.157    -3.339
  1651.954   836.060   303.767    11.691    -2.285    -2.560
  2316.310   772.820   306.913     9.433    -3.974    -1.389
  3077.799   705.220   310.108     7.620    -5.068    -1.349
  3934.334   635.050   313.921     6.179    -4.924    -1.906
  4879.494   564.480   319.139     4.526    -5.200    -2.804
  5901.581   495.730   324.851     2.694    -5.274    -4.307
  6982.596   430.710   329.701     1.457    -3.662    -3.387
  8102.673   370.780   334.045     0.865    -4.242    -0.729
  9243.642   316.720   337.824     0.447    -6.908     0.907
 10388.825   268.820   340.858     0.204    -9.892     2.482
 11524.679   226.980   343.464     0.082   -11.350     3.235
 12642.453   190.820   346.068     0.032   -10.142     2.587
 13735.537   159.870   349.118     0.013   -10.032    -1.470
 14805.315   133.550   355.324     0.006   -11.004    -2.954
 15865.461   111.290   370.203     0.005    -8.430    -0.452
 16931.070    92.560   390.300     0.006    -6.479     0.783
 246.5,  19,  1012.  day,levels,pres0
   182.035   991.250   298.001    17.023     0.725    -1.523
   595.033   945.500   299.160    15.335    -0.423    -2.576
  1081.386   893.790   301.069    13.690    -1.564    -2.915
  1652.390   836.060   303.697    11.818    -2.381    -2.324
  2316.540   772.820   306.721     9.697    -3.968    -1.442
  3077.868   705.220   310.096     7.762    -4.808    -1.238
  3934.778   635.050   314.169     6.249    -4.565    -1.530
  4880.636   564.480   319.321     4.639    -4.835    -1.860
  5903.283   495.730   324.970     2.844    -4.990    -2.982
  6985.282   430.710   330.130     1.580    -3.425    -2.809
  8107.538   370.780   334.880     0.923    -3.746    -0.430
  9251.165   316.720   338.534     0.474    -5.589     1.321
 10398.421   268.820   341.363     0.214    -7.940     2.134
 11535.551   226.980   343.720     0.084    -9.630     2.470
 12653.765   190.820   346.077     0.032    -9.378     2.374
 13746.762   159.870   349.052     0.013   -10.065    -0.800
 14816.940   133.550   355.665     0.006   -11.079    -1.960
 15878.500   111.290   370.837     0.005    -7.840     0.559
 16945.684    92.560   390.784     0.006    -5.642     1.481
 246.625,  19,  1012.  day,levels,pres0
   181.999   991.250   297.932    17.081    -0.081    -0.609
   595.018   945.500   299.258    15.293    -0.851    -1.492
  1081.584   893.790   301.246    13.669    -1.880    -1.926
  1652.728   836.060   303.659    11.879    -2.466    -1.759
  2316.751   772.820   306.571    10.017    -3.567    -1.254
  3077.996   705.220   310.065     8.055    -4.000    -1.057
  3935.018   635.050   314.197     6.406    -3.753    -1.176
  4880.864   564.480   319.212     4.846    -3.968    -1.036
  5903.274   495.730   324.836     3.107    -4.278    -1.776
  6985.406   430.710   330.237     1.876    -3.152    -1.812
  8108.558   370.780   335.205     1.130    -3.088    -0.040
  9253.619   316.720   338.995     0.563    -3.977     0.896
 10402.341   268.820   341.744     0.246    -5.778     0.995
 11540.205   226.980   343.764     0.092    -7.804     1.287
 12658.086   190.820   345.817     0.035    -8.433     1.693
 13750.061   159.870   348.658     0.013    -9.691    -0.502
 14819.363   133.550   355.487     0.006   -10.426    -1.000
 15880.518   111.290   370.740     0.005    -6.702     1.313
 16947.658    92.560   390.855     0.006    -4.889     1.824
 246.75,  19,  1012.  day,levels,pres0
   181.815   991.250   297.627    17.106    -0.807     0.723
   594.518   945.500   299.086    15.378    -1.307     0.007
  1080.923   893.790   301.213    13.620    -2.165    -0.515
  1652.000   836.060   303.657    11.733    -2.369    -0.677
  2316.017   772.820   306.597    10.012    -2.807    -0.531
  3077.249   705.220   309.997     8.226    -3.192    -0.645
  3933.998   635.050   314.002     6.571    -2.948    -0.756
  4879.377   564.480   319.022     5.067    -2.931    -0.727
  5901.196   495.730   324.568     3.318    -3.286    -1.127
  6982.607   430.710   329.991     2.062    -2.681    -1.105
  8105.107   370.780   334.999     1.278    -2.534     0.198
  9249.789   316.720   338.932     0.654    -2.880     0.230
 10398.215   268.820   341.603     0.281    -3.863    -0.250
 11535.143   226.980   343.324     0.102    -5.856     0.041
 12651.229   190.820   345.141     0.037    -7.182     0.708
 13741.375   159.870   348.175     0.014    -9.295    -0.837
 14810.229   133.550   355.692     0.007    -9.753    -0.666
 15871.673   111.290   370.727     0.006    -5.506     1.396
 16938.344    92.560   390.525     0.007    -4.695     1.653
 246.875,  19,  1012.  day,levels,pres0
   181.686   991.250   297.442    16.957    -0.690     2.331
   594.052   945.500   298.830    15.271    -1.091     1.884
  1080.076   893.790   301.051    13.452    -1.647     1.264
  1651.032   836.060   303.779    11.436    -1.608     0.699
  2315.330   772.820   306.851     9.668    -1.816     0.665
  3076.868   705.220   310.083     8.067    -2.580     0.467
  3933.605   635.050   313.940     6.548    -2.726     0.352
  4878.845   564.480   318.975     5.172    -2.389    -0.033
  5900.542   495.730   324.486     3.477    -2.717    -0.782
  6981.664   430.710   329.852     2.125    -2.531    -0.995
  8103.540   370.780   334.749     1.299    -2.508    -0.141
  9247.148   316.720   338.539     0.670    -2.603    -0.700
 10394.040   268.820   341.080     0.284    -2.914    -1.551
 11529.119   226.980   342.731     0.102    -4.307    -1.625
 12643.123   190.820   344.448     0.037    -5.863    -1.339
 13731.740   159.870   347.906     0.014    -8.939    -2.117
 14801.597   133.550   356.653     0.007    -9.384    -0.805
 15864.791   111.290   370.945     0.006    -4.847     1.259
 16931.117    92.560   390.043     0.006    -4.792     1.420
 247.,  19,  1012.  day,levels,pres0
   181.750   991.250   297.548    16.954     0.357     3.179
   594.179   945.500   298.830    15.183    -0.028     3.227
  1080.214   893.790   301.096    13.362    -0.381     2.850
  1651.459   836.060   304.096    11.237    -0.218     2.272
  2316.446   772.820   307.286     9.234    -0.781     2.409
  3078.764   705.220   310.440     7.643    -2.033     2.809
  3935.993   635.050   314.056     6.349    -3.027     2.450
  4881.219   564.480   318.893     5.126    -2.757     1.263
  5902.476   495.730   324.281     3.557    -2.655    -0.039
  6983.134   430.710   329.765     2.117    -2.566    -0.655
  8104.517   370.780   334.556     1.234    -2.831    -0.313
  9247.218   316.720   338.218     0.622    -2.853    -1.636
 10393.043   268.820   340.786     0.257    -2.524    -3.225
 11527.149   226.980   342.447     0.095    -3.047    -4.098
 12640.229   190.820   344.164     0.035    -4.960    -4.487
 13728.583   159.870   348.034     0.013    -9.147    -4.268
 14799.828   133.550   357.457     0.007    -9.724    -0.940
 15863.995   111.290   370.780     0.006    -4.589     1.637
 16929.488    92.560   389.607     0.006    -4.734     1.327
 247.125,  19,  1012.  day,levels,pres0
   181.845   991.250   297.678    17.092     1.093     3.437
   594.446   945.500   298.898    15.323     0.796     3.953
  1080.578   893.790   301.100    13.483     0.647     3.962
  1651.960   836.060   304.205    11.298     0.873     3.791
  2317.339   772.820   307.580     8.952    -0.137     4.268
  3080.296   705.220   310.799     7.204    -2.080     5.375
  3938.001   635.050   314.177     6.063    -4.061     4.876
  4883.147   564.480   318.789     5.030    -3.836     2.889
  5903.876   495.730   324.072     3.554    -2.918     1.044
  6983.825   430.710   329.556     2.062    -2.458     0.371
  8104.421   370.780   334.331     1.124    -2.819    -0.019
  9246.369   316.720   338.041     0.535    -3.156    -2.228
 10391.831   268.820   340.778     0.213    -2.640    -4.719
 11525.926   226.980   342.459     0.086    -2.759    -6.804
 12639.107   190.820   344.218     0.033    -5.131    -7.555
 13727.974   159.870   348.312     0.013   -10.233    -6.073
 14799.619   133.550   357.435     0.007   -10.705    -0.889
 15862.759   111.290   370.083     0.005    -4.977     1.722
 16927.092    92.560   389.492     0.006    -4.577     1.153
 247.25,  19,  1012.  day,levels,pres0
   181.934   991.250   297.804    17.206     1.091     3.687
   594.640   945.500   298.878    15.461     0.970     4.269
  1080.718   893.790   301.010    13.582     1.109     4.206
  1651.980   836.060   304.109    11.519     1.271     4.155
  2317.441   772.820   307.707     8.991    -0.146     5.052
  3080.910   705.220   311.137     6.912    -2.996     6.699
  3939.126   635.050   314.310     5.820    -5.896     6.706
  4884.347   564.480   318.763     4.961    -5.303     4.641
  5904.820   495.730   323.942     3.581    -3.499     2.412
  6984.230   430.710   329.367     1.993    -2.325     1.811
  8104.337   370.780   334.268     1.019    -2.651     0.615
  9246.149   316.720   338.063     0.458    -3.349    -2.292
 10391.707   268.820   340.837     0.177    -3.339    -5.348
 11526.115   226.980   342.601     0.078    -3.439    -8.467
 12639.915   190.820   344.462     0.031    -6.173    -9.278
 13729.745   159.870   348.684     0.012   -11.145    -6.802
 14802.017   133.550   357.466     0.007   -11.189    -0.811
 15865.004   111.290   369.943     0.005    -5.681     1.145
 16930.400    92.560   390.418     0.006    -4.546     0.937
 247.375,  19,  1012.  day,levels,pres0
   181.970   991.250   297.864    17.192     1.091     4.066
   594.709   945.500   298.868    15.457     1.106     4.484
  1080.769   893.790   301.000    13.574     1.277     4.137
  1652.018   836.060   304.104    11.536     1.190     3.907
  2317.604   772.820   307.811     9.062    -0.754     5.058
  3081.465   705.220   311.378     6.714    -4.484     6.658
  3939.865   635.050   314.310     5.437    -8.321     6.933
  4884.699   564.480   318.619     4.735    -7.443     5.368
  5904.646   495.730   323.820     3.481    -4.507     3.384
  6983.878   430.710   329.426     1.880    -2.610     2.861
  8104.219   370.780   334.385     0.957    -2.806     1.373
  9246.393   316.720   338.178     0.428    -3.827    -1.976
 10392.258   268.820   340.913     0.163    -4.454    -5.180
 11527.138   226.980   342.816     0.075    -4.867    -8.440
 12642.027   190.820   344.927     0.031    -7.749    -9.260
 13733.758   159.870   349.436     0.012   -12.001    -6.203
 14808.182   133.550   358.129     0.006   -11.330    -0.363
 15873.052   111.290   370.566     0.005    -6.281     0.842
 16941.029    92.560   391.651     0.006    -4.238     1.306
 247.5,  19,  1012.  day,levels,pres0
   182.011   991.250   297.949    17.090     1.333     4.299
   594.861   945.500   298.980    15.363     1.544     4.586
  1081.063   893.790   301.092    13.505     1.633     3.965
  1652.530   836.060   304.254    11.549     1.184     3.408
  2318.471   772.820   307.985     9.067    -1.237     4.492
  3082.709   705.220   311.554     6.464    -5.728     5.794
  3941.265   635.050   314.395     4.897   -10.776     6.047
  4885.906   564.480   318.581     4.350   -10.065     5.014
  5905.604   495.730   323.809     3.317    -5.743     3.503
  6984.984   430.710   329.590     1.751    -3.107     3.316
  8105.712   370.780   334.485     0.911    -2.999     1.945
  9248.159   316.720   338.253     0.407    -4.481    -1.564
 10394.209   268.820   340.952     0.156    -5.625    -4.800
 11529.332   226.980   342.926     0.073    -6.431    -7.639
 12644.958   190.820   345.276     0.031    -9.526    -8.431
 13738.114   159.870   349.998     0.012   -12.952    -5.115
 14814.402   133.550   358.797     0.007   -11.464     0.108
 15881.002   111.290   371.078     0.005    -6.310     0.513
 16950.926    92.560   392.537     0.006    -3.712     1.543
 247.625,  19,  1012.  day,levels,pres0
   182.068   991.250   298.030    17.166     1.658     4.252
   595.080   945.500   299.095    15.497     1.950     4.403
  1081.479   893.790   301.174    13.637     1.938     3.555
  1653.196   836.060   304.355    11.860     1.236     2.689
  2319.478   772.820   308.071     9.438    -1.205     3.468
  3084.027   705.220   311.653     6.446    -6.503     4.414
  3942.865   635.050   314.575     4.536   -12.862     4.378
  4887.739   564.480   318.692     4.005   -12.740     3.775
  5907.432   495.730   323.780     3.215    -6.870     2.788
  6986.517   430.710   329.480     1.641    -3.426     3.176
  8106.976   370.780   334.478     0.825    -3.086     1.931
  9249.447   316.720   338.306     0.349    -4.944    -1.744
 10395.499   268.820   340.915     0.140    -6.474    -5.020
 11530.601   226.980   342.957     0.069    -7.879    -7.355
 12646.593   190.820   345.477     0.029   -11.156    -7.819
 13740.357   159.870   350.185     0.012   -13.799    -4.108
 14816.744   133.550   358.667     0.007   -11.588     0.337
 15883.002   111.290   370.975     0.005    -6.074    -0.155
 16953.666    92.560   393.189     0.007    -2.916     1.172
 247.75,  19,  1012.  day,levels,pres0
   182.074   991.250   298.009    17.340     1.870     3.866
   595.120   945.500   299.094    15.721     2.153     3.922
  1081.546   893.790   301.117    13.912     1.993     2.920
  1653.243   836.060   304.268    12.251     1.129     1.812
  2319.493   772.820   307.973     9.882    -1.222     2.253
  3083.968   705.220   311.559     6.700    -7.177     2.867
  3942.675   635.050   314.519     4.569   -14.460     2.679
  4887.447   564.480   318.716     3.793   -14.532     2.302
  5907.017   495.730   323.751     3.049    -7.548     1.682
  6986.030   430.710   329.532     1.484    -3.619     2.305
  8106.592   370.780   334.542     0.710    -3.478     1.179
  9249.067   316.720   338.277     0.292    -5.709    -2.360
 10394.673   268.820   340.690     0.126    -7.425    -5.353
 11529.081   226.980   342.769     0.065    -9.182    -7.173
 12644.689   190.820   345.433     0.028   -12.506    -7.102
 13737.929   159.870   349.888     0.012   -14.441    -2.753
 14812.451   133.550   357.720     0.006   -11.434     0.619
 15876.800   111.290   370.632     0.005    -5.895    -0.808
 16948.275    92.560   394.145     0.007    -2.164     0.680
 247.875,  19,  1012.  day,levels,pres0
   182.050   991.250   297.950    17.449     2.035     3.090
   595.059   945.500   299.048    15.895     2.346     2.953
  1081.465   893.790   301.079    14.059     1.989     1.985
  1653.102   836.060   304.187    12.408     0.888     0.835
  2319.176   772.820   307.820    10.114    -1.728     0.895
  3083.251   705.220   311.288     6.998    -8.036     1.311
  3941.398   635.050   314.286     4.778   -15.407     1.272
  4885.860   564.480   318.729     3.663   -14.815     1.151
  5905.436   495.730   323.811     2.829    -7.766     0.416
  6984.416   430.710   329.513     1.387    -4.161     0.805
  8104.720   370.780   334.437     0.660    -4.431    -0.049
  9246.735   316.720   338.125     0.271    -6.766    -2.830
 10391.727   268.820   340.482     0.120    -8.643    -5.182
 11525.546   226.980   342.626     0.062   -10.334    -6.250
 12640.783   190.820   345.350     0.027   -13.509    -5.057
 13733.219   159.870   349.452     0.011   -14.695    -0.550
 14805.642   133.550   356.761     0.006   -11.015     0.813
 15868.405   111.290   370.529     0.005    -6.017    -1.414
 16940.289    92.560   394.552     0.007    -1.913     0.279
 248.,  19,  1012.  day,levels,pres0
   181.999   991.250   297.863    17.466     2.369     2.085
   594.895   945.500   298.963    15.927     2.498     1.764
  1081.251   893.790   301.093    14.074     1.989     0.872
  1652.947   836.060   304.260    12.260     0.747    -0.206
  2319.019   772.820   307.806     9.930    -2.463    -0.381
  3082.708   705.220   311.014     7.035    -8.828    -0.114
  3940.170   635.050   314.020     4.953   -15.273     0.045
  4884.238   564.480   318.716     3.580   -14.053     0.190
  5903.725   495.730   323.817     2.665    -7.832    -0.930
  6982.039   430.710   329.127     1.398    -4.812    -0.541
  8100.790   370.780   333.895     0.666    -5.159    -0.985
  9241.226   316.720   337.737     0.278    -7.413    -2.737
 10385.465   268.820   340.429     0.123    -9.270    -4.272
 11519.343   226.980   342.716     0.063   -10.860    -4.229
 12634.672   190.820   345.312     0.028   -13.918    -1.688
 13726.740   159.870   349.251     0.012   -14.748     2.178
 14798.284   133.550   356.378     0.006   -10.784     1.068
 15860.413   111.290   370.486     0.005    -6.156    -2.104
 16931.738    92.560   394.188     0.007    -1.857    -0.334
 248.125,  19,  1012.  day,levels,pres0
   181.953   991.250   297.791    17.449     2.768     1.020
   594.757   945.500   298.926    15.810     2.637     0.552
  1081.100   893.790   301.163    13.934     1.940    -0.377
  1652.873   836.060   304.355    11.949     0.475    -1.495
  2318.887   772.820   307.776     9.585    -3.321    -1.785
  3082.135   705.220   310.788     6.820    -9.323    -1.702
  3938.967   635.050   313.841     4.893   -14.752    -1.216
  4882.651   564.480   318.674     3.466   -13.372    -0.832
  5901.919   495.730   323.772     2.520    -8.189    -1.942
  6979.485   430.710   328.735     1.435    -5.139    -1.388
  8096.808   370.780   333.432     0.662    -5.204    -1.225
  9235.896   316.720   337.410     0.278    -7.039    -1.764
 10379.555   268.820   340.420     0.125    -8.938    -2.092
 11513.510   226.980   342.772     0.065   -10.867    -1.238
 12628.586   190.820   345.093     0.028   -14.121     1.682
 13719.938   159.870   349.015     0.012   -14.772     4.881
 14790.826   133.550   356.183     0.006   -10.534     2.076
 15852.630   111.290   370.463     0.005    -5.921    -2.244
 16923.227    92.560   393.679     0.007    -1.518    -1.045
 248.25,  19,  1012.  day,levels,pres0
   181.929   991.250   297.759    17.408     2.986     0.240
   594.690   945.500   298.934    15.644     2.737    -0.587
  1080.984   893.790   301.177    13.640     1.850    -1.546
  1652.700   836.060   304.409    11.541    -0.122    -2.669
  2318.563   772.820   307.748     9.107    -4.323    -3.318
  3081.460   705.220   310.676     6.525    -9.889    -3.555
  3937.911   635.050   313.747     4.807   -14.409    -2.583
  4881.319   564.480   318.617     3.379   -12.954    -1.527
  5900.460   495.730   323.800     2.344    -8.480    -2.115
  6977.760   430.710   328.582     1.403    -5.355    -1.522
  8094.545   370.780   333.276     0.647    -5.062    -0.712
  9233.362   316.720   337.413     0.280    -6.116    -0.329
 10377.287   268.820   340.576     0.132    -8.285     0.672
 11511.718   226.980   342.901     0.067   -10.733     2.321
 12627.028   190.820   345.105     0.029   -14.166     4.728
 13718.292   159.870   348.944     0.012   -14.409     6.813
 14789.332   133.550   356.361     0.006    -9.770     3.520
 15852.013   111.290   370.892     0.005    -5.198    -1.366
 16923.125    92.560   393.604     0.007    -1.103    -1.252
 248.375,  19,  1012.  day,levels,pres0
   181.983   991.250   297.856    17.355     3.154    -0.520
   594.844   945.500   299.015    15.504     2.924    -1.440
  1081.185   893.790   301.232    13.351     1.747    -2.433
  1652.909   836.060   304.481    11.188    -0.741    -3.815
  2318.741   772.820   307.783     8.729    -5.341    -4.649
  3081.562   705.220   310.668     6.429   -10.326    -4.995
  3938.066   635.050   313.811     4.823   -13.927    -3.895
  4881.738   564.480   318.736     3.333   -12.300    -2.401
  5901.453   495.730   324.097     2.131    -8.506    -2.439
  6979.739   430.710   328.947     1.300    -5.583    -1.551
  8097.797   370.780   333.689     0.640    -5.087    -0.057
  9238.056   316.720   337.845     0.313    -5.477     1.009
 10383.361   268.820   340.951     0.154    -7.236     2.918
 11518.876   226.980   343.171     0.073   -10.083     4.948
 12635.070   190.820   345.379     0.030   -13.681     6.828
 13726.884   159.870   349.014     0.012   -13.496     8.006
 14798.564   133.550   356.719     0.006    -8.746     4.774
 15862.927   111.290   371.695     0.005    -4.862     0.013
 16935.396    92.560   393.753     0.007    -1.150    -1.177
 248.5,  19,  1012.  day,levels,pres0
   182.015   991.250   297.924    17.268     3.512    -1.049
   594.954   945.500   299.085    15.465     3.223    -2.109
  1081.358   893.790   301.248    13.346     1.875    -3.096
  1653.102   836.060   304.484    11.199    -0.931    -4.457
  2318.950   772.820   307.805     8.661    -5.809    -5.226
  3081.884   705.220   310.737     6.501   -10.641    -5.687
  3938.830   635.050   314.042     4.880   -13.393    -5.147
  4883.293   564.480   319.025     3.335   -11.724    -3.948
  5903.874   495.730   324.379     1.997    -8.592    -3.496
  6983.225   430.710   329.354     1.230    -5.838    -2.231
  8102.779   370.780   334.175     0.689    -4.996     0.254
  9244.725   316.720   338.326     0.387    -4.762     2.243
 10391.579   268.820   341.362     0.190    -5.700     4.199
 11528.284   226.980   343.463     0.084    -8.804     6.149
 12645.263   190.820   345.564     0.033   -12.142     7.914
 13737.407   159.870   349.034     0.013   -11.557     8.444
 14809.614   133.550   357.054     0.007    -7.857     4.799
 15875.031   111.290   372.084     0.006    -5.003     0.549
 16947.768    92.560   393.538     0.008    -1.714    -1.217
 248.625,  19,  1012.  day,levels,pres0
   182.038   991.250   297.969    17.230     3.884    -1.041
   595.067   945.500   299.159    15.563     3.668    -2.277
  1081.621   893.790   301.302    13.557     2.479    -3.237
  1653.488   836.060   304.490    11.363    -0.446    -4.369
  2319.387   772.820   307.795     8.764    -5.449    -5.284
  3082.322   705.220   310.681     6.757   -10.651    -6.101
  3939.351   635.050   314.088     5.000   -13.245    -6.189
  4884.096   564.480   319.152     3.307   -11.702    -5.691
  5904.785   495.730   324.332     1.953    -8.479    -4.767
  6984.181   430.710   329.439     1.235    -5.639    -3.142
  8104.297   370.780   334.405     0.792    -4.449    -0.094
  9247.058   316.720   338.538     0.472    -3.775     2.800
 10394.608   268.820   341.537     0.228    -3.916     4.622
 11531.740   226.980   343.533     0.095    -6.501     6.188
 12648.761   190.820   345.514     0.037    -9.388     7.671
 13740.508   159.870   348.827     0.014    -9.226     7.854
 14811.672   133.550   356.568     0.007    -7.346     4.145
 15875.071   111.290   371.178     0.006    -5.492     0.541
 16945.129    92.560   392.529     0.008    -2.759    -1.249
 248.75,  19,  1012.  day,levels,pres0
   182.045   991.250   297.979    17.233     3.996    -0.697
   595.062   945.500   299.129    15.567     4.065    -2.203
  1081.539   893.790   301.210    13.707     3.128    -3.148
  1653.136   836.060   304.251    11.458     0.317    -3.874
  2318.537   772.820   307.527     8.940    -4.525    -4.833
  3080.925   705.220   310.428     6.998    -9.717    -6.098
  3937.496   635.050   313.961     5.013   -12.503    -6.635
  4882.030   564.480   319.152     3.229   -11.973    -6.292
  5902.579   495.730   324.266     1.915    -8.634    -5.357
  6981.687   430.710   329.335     1.247    -5.449    -3.876
  8101.612   370.780   334.373     0.905    -4.213    -0.842
  9244.259   316.720   338.461     0.557    -3.255     2.542
 10391.373   268.820   341.327     0.262    -2.663     4.352
 11527.584   226.980   343.175     0.105    -3.906     5.589
 12643.229   190.820   345.018     0.040    -6.357     6.580
 13733.367   159.870   348.299     0.015    -7.630     6.742
 14802.433   133.550   355.705     0.007    -7.267     3.506
 15862.359   111.290   369.649     0.005    -6.112     0.697
 16928.543    92.560   391.304     0.007    -3.562    -1.197
 248.875,  19,  1012.  day,levels,pres0
   182.020   991.250   297.938    17.237     4.261    -0.408
   594.968   945.500   299.091    15.451     4.270    -2.120
  1081.289   893.790   301.094    13.601     3.223    -3.545
  1652.439   836.060   303.932    11.341     0.774    -3.937
  2317.118   772.820   307.203     8.937    -3.192    -4.380
  3078.930   705.220   310.298     6.942    -7.606    -5.573
  3935.529   635.050   314.169     4.787   -10.561    -6.166
  4880.600   564.480   319.368     3.124   -11.312    -5.625
  5901.776   495.730   324.467     1.908    -8.493    -4.697
  6981.175   430.710   329.296     1.302    -5.623    -3.840
  8100.898   370.780   334.260     0.998    -4.718    -1.456
  9242.894   316.720   338.154     0.620    -3.545     1.609
 10388.563   268.820   340.753     0.282    -2.274     3.116
 11522.638   226.980   342.453     0.109    -2.319     4.146
 12636.017   190.820   344.343     0.040    -4.761     4.793
 13724.420   159.870   347.877     0.015    -7.474     5.514
 14791.879   133.550   355.064     0.007    -8.175     3.065
 15849.290   111.290   368.558     0.005    -6.829     1.278
 16912.625    92.560   390.368     0.007    -4.003    -1.491
 249.,  19,  1012.  day,levels,pres0
   181.972   991.250   297.851    17.289     4.920    -0.438
   594.840   945.500   299.050    15.461     4.649    -2.122
  1081.051   893.790   301.014    13.506     3.228    -3.902
  1651.869   836.060   303.696    11.233     0.913    -4.159
  2315.976   772.820   306.939     8.913    -2.175    -4.037
  3077.429   705.220   310.301     6.829    -5.721    -4.725
  3934.293   635.050   314.390     4.761    -8.281    -4.951
  4879.938   564.480   319.545     3.080    -9.520    -4.432
  5901.654   495.730   324.632     1.940    -7.785    -3.378
  6981.374   430.710   329.308     1.336    -5.722    -2.787
  8101.055   370.780   334.207     1.036    -5.299    -1.247
  9242.469   316.720   337.850     0.628    -4.042     0.813
 10386.735   268.820   340.221     0.276    -2.467     1.374
 11518.990   226.980   341.891     0.104    -2.182     2.226
 12631.020   190.820   344.081     0.038    -5.060     3.162
 13719.167   159.870   347.986     0.015    -8.769     4.552
 14786.399   133.550   354.796     0.007    -9.303     3.031
 15843.011   111.290   368.277     0.005    -7.126     1.837
 16905.707    92.560   390.195     0.007    -4.325    -1.706
 249.125,  19,  1012.  day,levels,pres0
   181.834   991.250   297.637    17.222     5.135    -0.410
   594.442   945.500   298.904    15.450     4.778    -1.968
  1080.375   893.790   300.841    13.389     3.438    -3.746
  1650.766   836.060   303.462    11.107     1.388    -4.104
  2314.328   772.820   306.707     8.846    -1.410    -3.721
  3075.375   705.220   310.212     6.856    -4.576    -3.845
  3932.032   635.050   314.296     4.909    -6.287    -3.526
  4877.394   564.480   319.413     3.115    -7.241    -2.939
  5898.878   495.730   324.593     2.047    -6.364    -1.887
  6978.769   430.710   329.415     1.427    -5.051    -1.000
  8098.701   370.780   334.224     1.056    -4.883     0.045
  9239.743   316.720   337.610     0.595    -3.695     0.588
 10383.098   268.820   339.930     0.255    -2.747    -0.219
 11514.769   226.980   341.841     0.098    -3.381     0.529
 12626.905   190.820   344.203     0.036    -6.941     2.228
 13715.264   159.870   347.995     0.014   -10.575     4.156
 14781.768   133.550   354.293     0.006   -10.057     3.200
 15837.417   111.290   368.132     0.004    -6.851     2.119
 16900.158    92.560   390.382     0.007    -4.366    -1.885
 249.25,  19,  1012.  day,levels,pres0
   181.748   991.250   297.537    16.995     4.718     0.257
   594.137   945.500   298.745    15.355     4.376    -1.264
  1079.730   893.790   300.628    13.206     3.403    -2.990
  1649.695   836.060   303.278    10.986     1.610    -3.360
  2312.896   772.820   306.572     8.902    -1.036    -3.163
  3073.657   705.220   310.056     7.123    -3.821    -2.892
  3930.045   635.050   314.138     5.262    -4.859    -2.126
  4875.126   564.480   319.265     3.369    -5.180    -1.505
  5896.453   495.730   324.558     2.224    -4.725    -0.478
  6976.742   430.710   329.630     1.578    -4.061     0.617
  8097.393   370.780   334.406     1.040    -3.875     1.336
  9238.807   316.720   337.659     0.535    -3.109     0.537
 10382.479   268.820   340.089     0.234    -3.302    -1.141
 11515.015   226.980   342.214     0.093    -5.241    -0.650
 12628.421   190.820   344.616     0.035    -9.361     1.709
 13717.799   159.870   348.227     0.013   -12.390     4.182
 14784.511   133.550   354.191     0.006   -10.794     3.575
 15839.934   111.290   368.081     0.004    -6.536     2.497
 16902.764    92.560   390.501     0.006    -4.634    -1.754
 249.375,  19,  1012.  day,levels,pres0
   181.719   991.250   297.521    16.824     4.421     0.962
   593.959   945.500   298.599    15.219     3.878    -0.371
  1079.274   893.790   300.461    13.187     3.055    -1.958
  1648.954   836.060   303.107    11.210     1.554    -2.185
  2311.897   772.820   306.411     9.191    -0.907    -2.206
  3072.482   705.220   309.977     7.359    -3.328    -2.104
  3928.781   635.050   314.043     5.600    -4.003    -1.452
  4873.839   564.480   319.217     3.702    -3.861    -0.652
  5895.426   495.730   324.670     2.417    -3.398     0.476
  6976.673   430.710   330.052     1.651    -3.019     1.532
  8098.708   370.780   334.803     0.967    -2.753     2.098
  9241.580   316.720   338.150     0.478    -2.865     0.673
 10387.395   268.820   340.889     0.222    -3.831    -1.383
 11522.675   226.980   343.072     0.090    -6.554    -1.356
 12638.751   190.820   345.404     0.035   -10.864     1.073
 13730.396   159.870   348.878     0.013   -13.237     3.856
 14799.125   133.550   354.868     0.006   -11.375     3.869
 15856.261   111.290   368.570     0.004    -6.599     3.020
 16919.760    92.560   390.475     0.006    -4.969    -1.185
 249.5,  19,  1012.  day,levels,pres0
   181.724   991.250   297.539    16.760     4.072     0.966
   593.923   945.500   298.561    15.069     3.312    -0.150
  1079.180   893.790   300.451    13.205     2.421    -1.358
  1648.793   836.060   303.016    11.353     1.175    -1.507
  2311.501   772.820   306.217     9.414    -1.045    -1.591
  3071.791   705.220   309.866     7.494    -3.309    -1.953
  3928.019   635.050   314.034     5.836    -3.912    -1.532
  4873.271   564.480   319.248     4.032    -3.437    -0.335
  5895.244   495.730   324.774     2.644    -2.580     1.099
  6977.261   430.710   330.351     1.756    -2.022     2.036
  8100.242   370.780   335.049     0.929    -1.741     2.684
  9244.354   316.720   338.647     0.471    -2.376     1.108
 10392.492   268.820   341.776     0.238    -3.256    -1.586
 11530.703   226.980   343.946     0.093    -5.735    -2.061
 12649.175   190.820   345.999     0.035    -9.860    -0.181
 13742.423   159.870   349.296     0.014   -12.636     2.839
 14812.541   133.550   355.367     0.006   -11.153     3.693
 15870.762   111.290   368.807     0.005    -6.279     2.978
 16933.861    92.560   389.933     0.006    -4.911    -0.769
 249.625,  19,  1012.  day,levels,pres0
   181.701   991.250   297.497    16.787     3.631     0.290
   593.922   945.500   298.638    15.023     2.630    -0.506
  1079.297   893.790   300.542    13.127     1.850    -1.220
  1648.965   836.060   303.016    11.247     0.629    -1.275
  2311.653   772.820   306.206     9.483    -1.482    -1.597
  3072.013   705.220   309.889     7.668    -3.293    -2.209
  3928.511   635.050   314.123     6.111    -3.853    -1.824
  4874.185   564.480   319.322     4.375    -3.228    -0.308
  5896.497   495.730   324.788     2.938    -1.683     1.332
  6978.552   430.710   330.271     1.895    -1.162     2.209
  8101.150   370.780   334.869     0.942    -1.156     3.132
  9245.017   316.720   338.679     0.505    -1.658     1.552
 10393.657   268.820   342.035     0.262    -2.125    -1.630
 11532.788   226.980   344.236     0.100    -3.861    -2.440
 12651.805   190.820   346.038     0.036    -7.461    -1.523
 13744.777   159.870   349.076     0.014   -11.277     1.629
 14814.519   133.550   355.344     0.007   -10.303     3.109
 15872.720   111.290   368.817     0.005    -5.355     2.139
 16934.844    92.560   389.207     0.006    -4.697    -0.688
 249.75,  19,  1012.  day,levels,pres0
   181.643   991.250   297.415    16.717     3.053    -0.317
   593.846   945.500   298.715    14.987     1.943    -0.935
  1079.322   893.790   300.626    12.967     1.264    -1.322
  1649.043   836.060   303.060    11.008    -0.021    -1.467
  2311.814   772.820   306.306     9.361    -2.001    -1.856
  3072.402   705.220   309.979     7.767    -3.085    -2.261
  3929.192   635.050   314.181     6.354    -3.216    -1.762
  4874.991   564.480   319.242     4.672    -2.427    -0.269
  5897.163   495.730   324.674     3.173    -0.626     1.230
  6978.688   430.710   330.007     1.928    -0.472     2.275
  8100.106   370.780   334.422     0.947    -1.048     3.415
  9242.442   316.720   338.217     0.539    -1.339     1.698
 10389.323   268.820   341.444     0.267    -1.594    -1.586
 11526.512   226.980   343.656     0.101    -2.888    -2.600
 12643.549   190.820   345.394     0.036    -6.459    -2.176
 13734.364   159.870   348.346     0.014   -10.853     0.733
 14802.454   133.550   354.997     0.007    -9.927     2.134
 15859.967   111.290   368.700     0.005    -5.097     0.626
 16921.412    92.560   388.834     0.006    -5.388    -1.203
 249.875,  19,  1012.  day,levels,pres0
   181.699   991.250   297.515    16.670     2.528    -0.040
   593.980   945.500   298.760    14.849     1.578    -0.703
  1079.535   893.790   300.748    12.718     0.944    -1.347
  1649.460   836.060   303.254    10.711    -0.346    -1.565
  2312.491   772.820   306.467     9.024    -2.313    -1.680
  3073.330   705.220   310.118     7.581    -2.765    -1.933
  3930.424   635.050   314.285     6.426    -2.448    -1.488
  4876.364   564.480   319.180     4.856    -1.536    -0.152
  5898.334   495.730   324.564     3.213     0.128     1.163
  6979.359   430.710   329.826     1.823     0.140     2.348
  8099.858   370.780   334.085     0.909    -1.005     3.211
  9240.538   316.720   337.581     0.535    -1.363     1.284
 10384.687   268.820   340.457     0.249    -1.768    -1.841
 11518.654   226.980   342.709     0.094    -3.402    -2.573
 12633.029   190.820   344.708     0.035    -7.747    -2.102
 13722.271   159.870   348.041     0.013   -11.902    -0.043
 14790.294   133.550   355.273     0.007   -10.475     0.619
 15848.188   111.290   368.677     0.005    -5.923    -0.819
 16909.281    92.560   388.601     0.006    -7.000    -1.347
 250.,  19,  1012.  day,levels,pres0
   181.694   991.250   297.485    16.790     2.621     0.730
   593.920   945.500   298.690    14.842     1.812    -0.041
  1079.469   893.790   300.824    12.666     1.149    -0.964
  1649.551   836.060   303.348    10.739    -0.057    -0.983
  2312.656   772.820   306.409     9.164    -1.910    -0.554
  3073.498   705.220   310.165     7.522    -2.096    -1.073
  3930.743   635.050   314.365     6.398    -1.567    -0.912
  4876.782   564.480   319.174     4.839    -0.874     0.076
  5898.625   495.730   324.521     3.067     0.175     0.868
  6979.381   430.710   329.778     1.608     0.272     1.865
  8099.456   370.780   333.941     0.825    -1.190     2.597
  9239.182   316.720   337.180     0.512    -1.725     0.562
 10381.606   268.820   339.839     0.231    -2.556    -2.240
 11513.405   226.980   342.023     0.087    -5.086    -2.772
 12626.031   190.820   344.324     0.033   -10.177    -2.206
 13714.818   159.870   348.149     0.013   -13.869    -0.753
 14783.676   133.550   355.723     0.007   -11.564    -0.720
 15842.636   111.290   368.951     0.005    -6.744    -1.836
 16904.336    92.560   388.757     0.006    -8.491    -1.168
 250.125,  19,  1012.  day,levels,pres0
   181.663   991.250   297.426    16.836     3.211     0.991
   593.822   945.500   298.639    14.869     2.509     0.323
  1079.289   893.790   300.751    12.754     1.612    -0.539
  1649.204   836.060   303.207    10.860     0.476    -0.056
  2312.014   772.820   306.228     9.314    -1.118     0.696
  3072.584   705.220   310.080     7.621    -1.209    -0.215
  3929.763   635.050   314.390     6.366    -0.750    -0.477
  4875.869   564.480   319.211     4.778    -0.478    -0.020
  5897.700   495.730   324.507     2.965    -0.079     0.300
  6978.496   430.710   329.870     1.449     0.221     1.207
  8098.733   370.780   333.996     0.726    -1.240     1.909
  9238.245   316.720   337.021     0.477    -1.852    -0.151
 10380.058   268.820   339.645     0.217    -3.563    -2.450
 11511.059   226.980   341.738     0.084    -7.162    -3.144
 12622.843   190.820   344.092     0.033   -12.585    -2.714
 13711.470   159.870   348.289     0.013   -15.804    -1.325
 14780.969   133.550   356.009     0.007   -12.301    -1.306
 15840.479   111.290   369.036     0.005    -6.973    -2.190
 16902.893    92.560   389.188     0.006    -9.249    -0.767
 250.25,  19,  1012.  day,levels,pres0
   181.702   991.250   297.498    16.788     3.628     1.000
   593.918   945.500   298.654    14.888     3.094     0.579
  1079.348   893.790   300.691    12.730     1.642     0.084
  1649.114   836.060   303.121    10.818     0.499     0.763
  2311.724   772.820   306.139     9.312    -0.608     1.428
  3072.033   705.220   309.939     7.715    -0.394     0.404
  3928.995   635.050   314.363     6.337    -0.281    -0.482
  4875.114   564.480   319.255     4.772    -0.355    -0.616
  5896.943   495.730   324.459     2.979    -0.133    -0.295
  6977.787   430.710   329.947     1.447     0.110     0.505
  8098.327   370.780   334.106     0.697    -1.094     1.068
  9238.116   316.720   337.091     0.424    -1.863    -0.646
 10380.201   268.820   339.754     0.191    -4.738    -2.302
 11511.433   226.980   341.773     0.078    -9.301    -3.323
 12623.161   190.820   344.022     0.031   -14.521    -3.258
 13711.817   159.870   348.382     0.013   -17.084    -2.165
 14781.939   133.550   356.332     0.007   -12.476    -1.754
 15841.495   111.290   368.727     0.005    -7.116    -2.071
 16904.477    92.560   389.931     0.006    -9.397    -0.249
 250.375,  19,  1012.  day,levels,pres0
   181.769   991.250   297.626    16.694     3.862     1.409
   594.058   945.500   298.651    14.869     3.661     1.039
  1079.449   893.790   300.653    12.698     1.837     1.049
  1649.195   836.060   303.145    10.808     0.635     1.656
  2311.915   772.820   306.206     9.372    -0.239     1.693
  3072.349   705.220   309.957     7.738     0.116     0.871
  3929.358   635.050   314.378     6.320     0.035    -0.110
  4875.574   564.480   319.312     4.757    -0.114    -0.654
  5897.720   495.730   324.603     2.990    -0.271    -0.628
  6979.247   430.710   330.210     1.480    -0.100     0.213
  8100.917   370.780   334.511     0.682    -1.333     0.538
  9242.320   316.720   337.652     0.373    -2.583    -0.722
 10386.301   268.820   340.331     0.171    -6.023    -1.989
 11519.295   226.980   342.262     0.073   -11.006    -3.237
 12632.667   190.820   344.549     0.030   -15.911    -3.522
 13722.916   159.870   348.866     0.013   -17.760    -2.724
 14794.856   133.550   357.050     0.007   -12.619    -1.966
 15856.120   111.290   369.170     0.005    -7.450    -1.829
 16920.820    92.560   390.724     0.006    -9.496     0.190
 250.5,  19,  1012.  day,levels,pres0
   181.857   991.250   297.764    16.719     4.164     1.880
   594.254   945.500   298.660    14.898     4.375     1.661
  1079.641   893.790   300.603    12.876     2.775     2.157
  1649.409   836.060   303.146    11.028     1.430     2.351
  2312.320   772.820   306.327     9.451     0.539     1.686
  3073.138   705.220   310.145     7.682     0.638     1.060
  3930.546   635.050   314.499     6.278     0.408     0.455
  4877.089   564.480   319.429     4.701    -0.012    -0.014
  5899.730   495.730   324.813     2.980    -0.510    -0.324
  6981.965   430.710   330.430     1.487    -0.663     0.318
  8104.566   370.780   334.842     0.690    -2.163     0.439
  9247.459   316.720   338.205     0.355    -3.991    -0.586
 10393.430   268.820   340.965     0.163    -7.472    -1.628
 11528.478   226.980   342.866     0.071   -11.849    -3.000
 12643.691   190.820   345.079     0.029   -16.383    -3.029
 13735.447   159.870   349.292     0.012   -17.935    -2.320
 14809.052   133.550   357.727     0.006   -12.940    -1.762
 15872.221   111.290   369.795     0.005    -8.090    -1.546
 16938.244    92.560   391.033     0.006    -9.737     0.566
 250.625,  19,  1012.  day,levels,pres0
   181.914   991.250   297.837    16.832     4.617     2.619
   594.365   945.500   298.641    14.909     5.132     2.484
  1079.675   893.790   300.496    13.026     4.051     2.943
  1649.331   836.060   303.071    11.230     2.671     2.739
  2312.279   772.820   306.403     9.438     1.728     1.894
  3073.334   705.220   310.270     7.644     1.480     1.395
  3931.070   635.050   314.614     6.302     0.931     1.002
  4878.011   564.480   319.572     4.724     0.289     0.566
  5901.049   495.730   324.912     3.000    -0.469     0.184
  6983.396   430.710   330.391     1.493    -1.257     0.450
  8105.896   370.780   334.814     0.722    -3.093     0.540
  9248.854   316.720   338.263     0.373    -5.527    -0.129
 10395.181   268.820   341.116     0.163    -8.937    -0.967
 11530.735   226.980   343.020     0.070   -12.857    -2.158
 12646.133   190.820   345.034     0.028   -16.500    -1.892
 13737.618   159.870   349.164     0.012   -17.998    -1.403
 14810.984   133.550   357.702     0.006   -13.410    -1.211
 15874.084   111.290   369.774     0.005    -8.511    -0.861
 16939.959    92.560   390.947     0.006    -9.793     0.971
 250.75,  19,  1012.  day,levels,pres0
   181.870   991.250   297.756    16.880     5.001     3.453
   594.269   945.500   298.626    14.980     5.686     3.221
  1079.469   893.790   300.347    13.109     4.914     3.161
  1648.889   836.060   302.930    11.367     3.681     2.929
  2311.696   772.820   306.381     9.487     2.643     2.482
  3072.834   705.220   310.344     7.686     2.041     1.889
  3930.887   635.050   314.753     6.364     1.469     1.408
  4878.278   564.480   319.708     4.794     0.862     0.995
  5901.605   495.730   324.935     3.033    -0.086     0.756
  6983.547   430.710   330.102     1.530    -1.605     0.571
  8104.946   370.780   334.435     0.754    -3.891     0.639
  9246.584   316.720   337.857     0.381    -6.851     0.502
 10391.482   268.820   340.675     0.154   -10.528    -0.065
 11525.582   226.980   342.587     0.067   -14.102    -1.221
 12639.500   190.820   344.555     0.027   -16.709    -0.824
 13729.121   159.870   348.452     0.011   -18.002    -0.660
 14799.793   133.550   356.630     0.006   -13.931    -0.568
 15860.372   111.290   369.133     0.004    -8.858    -0.005
 16925.768    92.560   391.271     0.006   -10.068     1.284
 250.875,  19,  1012.  day,levels,pres0
   181.804   991.250   297.646    16.897     5.056     4.471
   594.084   945.500   298.544    15.064     5.954     4.147
  1079.131   893.790   300.223    13.122     5.394     3.746
  1648.297   836.060   302.786    11.347     4.546     3.548
  2310.827   772.820   306.261     9.564     3.435     3.337
  3071.909   705.220   310.373     7.859     2.296     2.647
  3930.179   635.050   314.829     6.467     1.759     1.725
  4877.833   564.480   319.777     4.853     1.026     1.107
  5901.227   495.730   324.886     3.071    -0.122     0.730
  6982.644   430.710   329.815     1.560    -2.031     0.555
  8102.932   370.780   334.052     0.770    -4.598     0.953
  9243.060   316.720   337.350     0.350    -8.068     1.361
 10386.123   268.820   340.104     0.132   -11.831     0.752
 11518.453   226.980   342.100     0.061   -15.037    -0.751
 12630.960   190.820   344.175     0.025   -17.218    -0.434
 13718.911   159.870   347.762     0.011   -18.161    -0.157
 14786.760   133.550   355.449     0.006   -14.493     0.004
 15845.039   111.290   368.762     0.004    -9.491     0.483
 16910.865    92.560   391.978     0.006   -10.577     1.494
 251.,  19,  1012.  day,levels,pres0
   181.786   991.250   297.630    16.818     5.133     5.236
   594.023   945.500   298.518    15.048     6.017     5.086
  1079.021   893.790   300.210    13.022     5.667     4.915
  1648.119   836.060   302.768    11.219     5.102     4.771
  2310.609   772.820   306.251     9.645     4.133     4.272
  3071.760   705.220   310.392     8.038     2.452     3.421
  3930.103   635.050   314.805     6.594     1.491     2.262
  4877.716   564.480   319.729     4.955     0.377     1.204
  5901.029   495.730   324.857     3.107    -0.902     0.226
  6982.257   430.710   329.711     1.614    -2.559     0.242
  8102.005   370.780   333.820     0.785    -5.167     1.217
  9241.248   316.720   337.068     0.299    -9.366     2.435
 10383.390   268.820   339.856     0.112   -13.104     1.719
 11515.188   226.980   342.038     0.056   -15.769    -0.646
 12627.632   190.820   344.203     0.024   -18.136    -0.409
 13715.213   159.870   347.493     0.010   -18.762     0.707
 14781.615   133.550   354.755     0.005   -15.182     1.000
 15838.831   111.290   368.746     0.004   -10.137     1.045
 16905.172    92.560   392.371     0.006   -10.575     1.938
 251.125,  19,  1012.  day,levels,pres0
   181.821   991.250   297.691    16.800     5.226     5.521
   594.080   945.500   298.496    15.012     5.922     5.860
  1079.071   893.790   300.255    12.881     5.805     6.164
  1648.274   836.060   302.868    11.177     5.441     6.185
  2311.014   772.820   306.376     9.715     4.591     5.224
  3072.400   705.220   310.435     8.077     2.599     3.949
  3930.773   635.050   314.767     6.640     1.096     2.554
  4878.082   564.480   319.542     5.013    -0.450     1.325
  5900.816   495.730   324.662     3.142    -1.722    -0.103
  6981.458   430.710   329.531     1.681    -2.990    -0.134
  8100.519   370.780   333.582     0.760    -5.645     1.224
  9239.256   316.720   337.029     0.237   -10.027     2.945
 10381.193   268.820   339.788     0.100   -13.377     1.641
 11513.089   226.980   342.172     0.055   -15.860    -0.780
 12626.146   190.820   344.449     0.023   -18.667     0.242
 13714.194   159.870   347.538     0.010   -19.063     1.827
 14780.259   133.550   354.479     0.005   -15.328     2.136
 15837.485   111.290   369.044     0.004   -10.148     1.602
 16904.410    92.560   392.485     0.007   -10.054     2.139
 251.25,  19,  1012.  day,levels,pres0
   181.883   991.250   297.794    16.796     4.994     5.699
   594.270   945.500   298.595    14.919     5.618     6.351
  1079.417   893.790   300.390    12.741     5.704     6.935
  1648.815   836.060   302.982    11.087     5.425     6.952
  2311.791   772.820   306.504     9.662     4.475     5.825
  3073.474   705.220   310.557     8.084     2.368     4.253
  3931.994   635.050   314.758     6.593     0.523     2.590
  4878.956   564.480   319.337     4.943    -1.088     1.364
  5900.960   495.730   324.429     3.093    -2.064    -0.201
  6980.925   430.710   329.381     1.606    -3.126    -0.554
  8099.543   370.780   333.510     0.647    -5.943     1.130
  9238.275   316.720   337.136     0.188   -10.019     2.807
 10380.338   268.820   339.764     0.093   -12.962     1.017
 11512.248   226.980   342.208     0.055   -15.432    -0.598
 12625.533   190.820   344.556     0.024   -18.382     1.003
 13713.929   159.870   347.651     0.010   -18.780     2.400
 14780.302   133.550   354.568     0.005   -14.851     2.584
 15838.492   111.290   369.627     0.004    -9.509     1.588
 16906.947    92.560   392.991     0.007    -9.412     1.973
 251.375,  19,  1012.  day,levels,pres0
   181.987   991.250   297.968    16.772     4.581     5.813
   594.609   945.500   298.757    14.967     5.277     6.699
  1080.003   893.790   300.540    12.655     5.515     7.165
  1649.703   836.060   303.246    10.667     5.023     7.029
  2313.052   772.820   306.755     9.159     3.805     5.880
  3075.110   705.220   310.716     8.016     1.495     4.196
  3933.893   635.050   314.803     6.578    -0.691     2.555
  4880.897   564.480   319.326     4.919    -1.839     1.483
  5902.752   495.730   324.367     3.006    -2.314    -0.109
  6982.589   430.710   329.415     1.446    -3.315    -0.609
  8101.658   370.780   333.807     0.517    -6.194     1.390
  9241.413   316.720   337.474     0.170    -9.992     2.685
 10384.361   268.820   339.951     0.095   -12.492     0.636
 11516.639   226.980   342.238     0.054   -14.979    -0.193
 12629.978   190.820   344.559     0.024   -17.833     1.362
 13718.883   159.870   347.981     0.010   -18.392     2.474
 14786.521   133.550   355.076     0.005   -14.461     2.668
 15846.502   111.290   370.350     0.004    -8.905     1.403
 16916.885    92.560   393.641     0.007    -8.702     1.784
 251.5,  19,  1012.  day,levels,pres0
   182.118   991.250   298.191    16.728     4.249     6.178
   594.995   945.500   298.921    14.911     5.083     7.087
  1080.629   893.790   300.687    12.637     5.508     7.361
  1650.738   836.060   303.582    10.419     4.730     7.028
  2314.798   772.820   307.217     8.640     3.041     5.535
  3077.500   705.220   310.902     7.842     0.455     3.785
  3936.619   635.050   314.889     6.604    -1.887     2.346
  4883.945   564.480   319.437     4.992    -2.525     1.520
  5906.251   495.730   324.531     2.983    -2.530    -0.057
  6986.795   430.710   329.707     1.342    -3.401    -0.247
  8107.001   370.780   334.226     0.453    -6.208     1.978
  9247.918   316.720   337.746     0.180    -9.703     2.806
 10391.654   268.820   340.141     0.102   -11.733     0.830
 11524.367   226.980   342.306     0.054   -14.147     0.343
 12638.090   190.820   344.730     0.024   -17.288     1.511
 13727.911   159.870   348.399     0.010   -18.243     2.549
 14797.030   133.550   355.636     0.005   -14.047     2.746
 15858.549   111.290   370.839     0.005    -8.147     1.386
 16930.209    92.560   394.061     0.007    -7.794     1.779
 251.625,  19,  1012.  day,levels,pres0
   182.191   991.250   298.319    16.678     4.231     6.571
   595.250   945.500   299.079    14.827     4.987     7.382
  1081.112   893.790   300.821    12.665     5.495     7.376
  1651.593   836.060   303.821    10.517     4.659     6.783
  2316.365   772.820   307.623     8.598     2.580     5.011
  3079.839   705.220   311.148     7.730    -0.346     3.436
  3939.291   635.050   314.895     6.646    -2.650     2.424
  4886.618   564.480   319.412     5.050    -2.819     1.558
  5909.129   495.730   324.683     2.955    -2.616    -0.137
  6990.501   430.710   330.086     1.242    -3.426    -0.065
  8111.682   370.780   334.448     0.418    -5.844     2.148
  9252.993   316.720   337.758     0.184    -8.804     2.745
 10396.749   268.820   340.138     0.104   -10.302     1.058
 11529.515   226.980   342.341     0.056   -12.664     0.684
 12643.519   190.820   344.871     0.025   -16.647     1.517
 13733.835   159.870   348.574     0.011   -17.917     2.331
 14804.012   133.550   356.167     0.006   -13.373     2.734
 15866.702   111.290   371.103     0.005    -7.307     1.208
 16938.496    92.560   393.881     0.007    -7.013     1.898
 251.75,  19,  1012.  day,levels,pres0
   182.240   991.250   298.406    16.641     4.088     6.852
   595.426   945.500   299.192    14.791     4.825     7.445
  1081.414   893.790   300.859    12.718     5.291     6.908
  1651.993   836.060   303.846    10.686     4.400     6.057
  2317.050   772.820   307.800     8.761     2.158     4.382
  3081.017   705.220   311.331     7.780    -1.056     3.086
  3940.674   635.050   314.836     6.714    -3.395     2.321
  4887.590   564.480   319.181     5.046    -3.028     1.247
  5909.511   495.730   324.565     2.852    -2.638    -0.586
  6990.695   430.710   330.144     1.096    -3.542    -0.545
  8111.735   370.780   334.341     0.378    -5.198     1.428
  9252.500   316.720   337.549     0.188    -7.250     2.152
 10395.618   268.820   339.969     0.108    -8.328     0.924
 11527.895   226.980   342.215     0.060   -10.856     0.604
 12641.439   190.820   344.712     0.026   -15.893     1.294
 13731.217   159.870   348.389     0.011   -18.187     1.839
 14801.380   133.550   356.353     0.006   -13.426     2.584
 15864.254   111.290   371.036     0.005    -7.126     1.177
 16935.184    92.560   393.319     0.007    -6.118     2.164
 251.875,  19,  1012.  day,levels,pres0
   182.269   991.250   298.424    16.804     3.629     6.917
   595.561   945.500   299.251    15.037     4.460     7.197
  1081.708   893.790   300.935    12.809     4.876     6.314
  1652.373   836.060   303.867    10.556     3.795     5.272
  2317.416   772.820   307.798     8.726     1.691     3.864
  3081.394   705.220   311.337     7.844    -1.672     2.650
  3940.939   635.050   314.737     6.704    -4.037     1.988
  4887.391   564.480   318.991     4.934    -3.361     0.443
  5908.697   495.730   324.424     2.683    -2.860    -1.540
  6989.224   430.710   329.945     0.968    -3.926    -1.574
  8109.428   370.780   334.074     0.359    -4.847     0.024
  9249.241   316.720   337.257     0.201    -6.017     0.715
 10391.357   268.820   339.662     0.120    -6.947    -0.327
 11522.365   226.980   341.749     0.065    -9.354    -0.416
 12634.288   190.820   344.173     0.028   -14.977     0.424
 13722.622   159.870   348.013     0.012   -18.726     1.043
 14791.554   133.550   355.916     0.006   -13.654     2.210
 15852.771   111.290   370.332     0.005    -6.960     1.810
 16922.107    92.560   392.894     0.007    -5.355     2.391
 252.,  19,  1012.  day,levels,pres0
   182.236   991.250   298.318    17.096     3.184     6.936
   595.450   945.500   299.116    15.463     3.971     7.095
  1081.542   893.790   300.878    13.070     4.369     6.290
  1652.142   836.060   303.838    10.388     3.285     5.179
  2316.928   772.820   307.652     8.546     1.611     3.845
  3080.465   705.220   311.146     7.913    -1.637     2.543
  3939.559   635.050   314.600     6.633    -4.028     1.749
  4885.764   564.480   319.005     4.793    -3.521    -0.350
  5907.063   495.730   324.448     2.607    -3.380    -2.515
  6987.383   430.710   329.810     0.960    -4.351    -2.448
  8107.158   370.780   333.953     0.378    -4.882    -1.185
  9246.484   316.720   337.081     0.225    -5.532    -0.917
 10387.758   268.820   339.325     0.142    -6.457    -2.026
 11517.396   226.980   341.252     0.071    -8.698    -1.654
 12627.597   190.820   343.605     0.030   -14.496    -0.764
 13714.423   159.870   347.627     0.012   -19.297     0.104
 14781.670   133.550   355.184     0.006   -13.878     1.968
 15840.680   111.290   369.553     0.005    -6.738     2.301
 16908.943    92.560   392.928     0.007    -5.259     2.395
 252.125,  19,  1012.  day,levels,pres0
   182.150   991.250   298.150    17.244     2.786     6.992
   595.171   945.500   298.956    15.586     3.476     7.319
  1081.050   893.790   300.739    13.145     3.801     6.530
  1651.310   836.060   303.601    10.392     2.942     5.290
  2315.524   772.820   307.363     8.544     1.544     3.873
  3078.317   705.220   310.808     8.038    -1.295     2.314
  3936.631   635.050   314.353     6.603    -3.540     1.315
  4882.412   564.480   318.990     4.735    -3.443    -0.847
  5903.818   495.730   324.550     2.573    -3.725    -2.979
  6984.329   430.710   329.820     1.000    -4.660    -3.036
  8104.036   370.780   333.888     0.402    -4.958    -1.983
  9242.858   316.720   336.835     0.249    -5.378    -2.035
 10383.150   268.820   338.979     0.158    -6.245    -3.038
 11511.708   226.980   340.944     0.073    -8.351    -2.464
 12621.291   190.820   343.537     0.030   -14.567    -1.648
 13708.244   159.870   347.781     0.013   -19.828    -0.165
 14775.776   133.550   355.214     0.006   -14.009     2.044
 15834.671   111.290   369.441     0.005    -6.841     2.266
 16902.297    92.560   392.580     0.007    -5.666     2.004
 252.25,  19,  1012.  day,levels,pres0
   182.096   991.250   298.081    17.135     2.278     7.065
   594.986   945.500   298.885    15.421     2.912     7.505
  1080.622   893.790   300.569    12.980     3.309     6.438
  1650.333   836.060   303.244    10.247     2.665     4.925
  2313.782   772.820   307.065     8.425     1.232     3.524
  3075.902   705.220   310.580     8.066    -1.088     1.936
  3933.705   635.050   314.212     6.569    -3.144     0.766
  4879.373   564.480   319.055     4.789    -3.526    -1.138
  5901.396   495.730   324.848     2.678    -4.033    -3.135
  6982.855   430.710   330.049     1.126    -4.730    -3.145
  8103.052   370.780   333.908     0.455    -4.767    -2.350
  9241.771   316.720   336.734     0.276    -5.199    -2.577
 10381.722   268.820   338.869     0.166    -6.067    -3.075
 11510.073   226.980   340.931     0.072    -8.629    -2.472
 12620.087   190.820   343.824     0.031   -15.345    -2.003
 13708.468   159.870   348.410     0.013   -20.296    -0.232
 14778.182   133.550   356.026     0.007   -13.999     1.948
 15838.716   111.290   369.737     0.005    -7.228     1.792
 16905.855    92.560   391.911     0.007    -6.368     1.484
 252.375,  19,  1012.  day,levels,pres0
   182.122   991.250   298.165    16.907     1.980     6.852
   595.025   945.500   298.914    15.123     2.474     7.470
  1080.595   893.790   300.570    12.667     2.828     6.187
  1650.129   836.060   303.197     9.782     2.069     4.493
  2313.240   772.820   306.965     8.005     0.783     3.184
  3075.013   705.220   310.507     7.909    -0.913     1.518
  3932.700   635.050   314.238     6.533    -2.763     0.127
  4878.619   564.480   319.183     4.906    -3.447    -1.614
  5901.196   495.730   325.008     2.870    -4.492    -3.314
  6983.400   430.710   330.273     1.273    -4.829    -2.975
  8104.300   370.780   334.050     0.548    -4.321    -2.508
  9243.717   316.720   336.978     0.315    -4.878    -2.809
 10384.742   268.820   339.258     0.169    -6.443    -2.503
 11514.522   226.980   341.405     0.071    -9.966    -1.888
 12625.866   190.820   344.167     0.030   -16.923    -1.779
 13715.673   159.870   348.979     0.012   -20.940    -0.111
 14787.569   133.550   356.902     0.007   -14.592     1.703
 15849.727   111.290   369.954     0.005    -8.312     1.351
 16916.602    92.560   391.490     0.006    -7.366     1.006
 252.5,  19,  1012.  day,levels,pres0
   182.152   991.250   298.249    16.712     2.304     6.209
   595.084   945.500   298.950    14.885     2.621     6.743
  1080.703   893.790   300.694    12.355     2.636     5.517
  1650.474   836.060   303.457     9.374     1.601     3.829
  2313.861   772.820   307.118     7.545     0.390     2.560
  3075.716   705.220   310.535     7.751    -0.725     0.947
  3933.452   635.050   314.279     6.520    -2.250    -0.401
  4879.621   564.480   319.304     4.955    -3.101    -2.328
  5902.618   495.730   325.117     2.997    -4.528    -3.560
  6985.344   430.710   330.441     1.348    -4.806    -2.981
  8106.743   370.780   334.147     0.621    -3.972    -2.472
  9246.897   316.720   337.300     0.346    -4.897    -2.614
 10389.565   268.820   339.909     0.175    -7.670    -1.959
 11521.545   226.980   342.077     0.074   -12.011    -1.497
 12634.659   190.820   344.580     0.030   -18.498    -1.792
 13725.785   159.870   349.406     0.012   -21.443    -0.090
 14799.051   133.550   357.378     0.007   -15.149     1.826
 15861.672   111.290   369.778     0.005    -9.516     1.334
 16928.211    92.560   391.429     0.006    -8.280     0.590
 252.625,  19,  1012.  day,levels,pres0
   182.216   991.250   298.371    16.612     2.807     5.145
   595.291   945.500   299.077    14.749     3.001     5.302
  1081.188   893.790   300.991    12.056     2.719     4.114
  1651.512   836.060   303.869     9.009     1.346     2.784
  2315.444   772.820   307.308     7.354     0.214     1.661
  3077.501   705.220   310.535     7.790    -0.606     0.215
  3935.226   635.050   314.252     6.575    -1.725    -0.961
  4881.342   564.480   319.281     4.979    -2.688    -2.810
  5904.255   495.730   325.071     3.062    -4.248    -3.553
  6986.930   430.710   330.440     1.374    -4.584    -2.819
  8108.375   370.780   334.165     0.644    -3.865    -2.233
  9248.916   316.720   337.508     0.347    -5.392    -2.283
 10392.490   268.820   340.239     0.178    -9.448    -1.944
 11525.560   226.980   342.401     0.079   -13.957    -1.950
 12639.297   190.820   344.632     0.032   -19.471    -2.372
 13730.218   159.870   349.218     0.013   -21.361    -0.386
 14802.695   133.550   357.043     0.007   -14.890     2.122
 15863.682   111.290   368.983     0.004    -9.975     1.505
 16928.543    92.560   391.038     0.006    -8.836     0.182
 252.75,  19,  1012.  day,levels,pres0
   182.299   991.250   298.471    16.819     2.684     3.881
   595.598   945.500   299.212    15.037     2.968     3.715
  1081.840   893.790   301.228    12.067     2.670     2.629
  1652.566   836.060   304.102     8.762     1.238     1.648
  2316.781   772.820   307.374     7.384     0.105     0.595
  3078.935   705.220   310.508     7.965    -0.549    -0.522
  3936.682   635.050   314.238     6.706    -1.341    -1.621
  4882.694   564.480   319.191     5.020    -2.472    -3.038
  5905.115   495.730   324.833     3.095    -3.918    -3.260
  6987.104   430.710   330.254     1.384    -3.982    -2.340
  8108.107   370.780   334.084     0.675    -3.511    -2.122
  9248.646   316.720   337.580     0.372    -5.942    -2.379
 10392.616   268.820   340.396     0.191   -10.990    -2.534
 11526.063   226.980   342.464     0.088   -15.495    -2.887
 12639.344   190.820   344.275     0.034   -19.893    -3.093
 13728.791   159.870   348.631     0.013   -20.864    -0.862
 14799.505   133.550   356.469     0.007   -14.195     2.076
 15858.681   111.290   368.316     0.004    -9.923     1.296
 16921.654    92.560   390.358     0.006    -9.039    -0.324
 252.875,  19,  1012.  day,levels,pres0
   182.246   991.250   298.342    17.052     2.175     3.095
   595.486   945.500   299.138    15.457     2.599     2.604
  1081.670   893.790   301.092    12.408     2.436     1.617
  1652.279   836.060   304.037     8.845     1.094     0.642
  2316.353   772.820   307.264     7.538    -0.080    -0.436
  3078.410   705.220   310.497     8.046    -0.321    -1.018
  3936.255   635.050   314.288     6.801    -1.034    -1.788
  4882.176   564.480   319.056     5.032    -2.495    -2.888
  5903.877   495.730   324.506     3.109    -3.644    -2.892
  6985.029   430.710   330.066     1.426    -3.358    -2.107
  8105.655   370.780   334.026     0.756    -3.053    -2.464
  9245.990   316.720   337.486     0.443    -6.164    -2.984
 10389.710   268.820   340.322     0.217   -11.631    -3.465
 11522.580   226.980   342.180     0.094   -16.071    -3.837
 12634.312   190.820   343.591     0.036   -19.634    -3.836
 13721.595   159.870   347.938     0.014   -20.314    -1.064
 14790.694   133.550   356.109     0.007   -13.577     1.949
 15848.947   111.290   368.048     0.004    -9.741     0.948
 16911.063    92.560   390.012     0.006    -9.160    -0.894
 253.,  19,  1012.  day,levels,pres0
   182.094   991.250   298.115    16.928     2.020     2.613
   594.995   945.500   298.902    15.438     2.336     2.103
  1080.765   893.790   300.791    12.568     2.291     1.084
  1650.945   836.060   303.797     9.165     1.127     0.116
  2314.657   772.820   307.083     7.700    -0.266    -0.884
  3076.480   705.220   310.463     8.027    -0.470    -1.318
  3934.306   635.050   314.312     6.802    -0.992    -1.631
  4880.224   564.480   319.031     5.019    -2.583    -2.453
  5901.613   495.730   324.325     3.156    -3.609    -2.525
  6982.203   430.710   329.877     1.532    -3.221    -2.002
  8102.482   370.780   333.968     0.871    -3.013    -2.786
  9242.464   316.720   337.294     0.520    -6.578    -3.611
 10385.325   268.820   339.982     0.240   -12.110    -4.456
 11516.755   226.980   341.642     0.096   -16.216    -4.874
 12626.506   190.820   342.905     0.035   -19.126    -5.104
 13712.086   159.870   347.549     0.013   -19.908    -1.598
 14780.405   133.550   355.990     0.007   -12.939     1.884
 15838.340   111.290   367.949     0.005    -9.702     0.357
 16900.320    92.560   390.018     0.006    -9.512    -1.693
 253.125,  19,  1012.  day,levels,pres0
   182.008   991.250   298.006    16.750     2.287     2.745
   594.719   945.500   298.820    15.150     2.687     2.196
  1080.284   893.790   300.691    12.465     2.624     1.055
  1650.185   836.060   303.547     9.551     1.405    -0.078
  2313.470   772.820   306.807     8.030    -0.313    -1.120
  3074.890   705.220   310.359     7.997    -0.873    -1.673
  3932.511   635.050   314.283     6.752    -1.218    -1.559
  4878.384   564.480   319.043     5.001    -2.599    -2.092
  5899.717   495.730   324.272     3.190    -3.567    -2.228
  6979.871   430.710   329.626     1.677    -3.352    -2.152
  8099.413   370.780   333.730     0.981    -3.705    -3.096
  9238.451   316.720   336.941     0.566    -7.716    -4.311
 10379.804   268.820   339.424     0.246   -12.603    -5.453
 11509.297   226.980   341.031     0.094   -16.089    -6.411
 12617.456   190.820   342.540     0.034   -19.156    -6.774
 13702.254   159.870   347.423     0.013   -19.832    -2.499
 14769.979   133.550   355.722     0.007   -13.002     1.492
 15827.440   111.290   367.900     0.004   -10.174    -0.353
 16889.742    92.560   390.304     0.006   -10.153    -2.622
 253.25,  19,  1012.  day,levels,pres0
   182.024   991.250   298.022    16.809     2.921     3.613
   594.773   945.500   298.860    15.077     3.419     2.677
  1080.361   893.790   300.673    12.567     3.261     1.317
  1650.132   836.060   303.316    10.042     1.894    -0.062
  2313.107   772.820   306.610     8.314    -0.260    -1.103
  3074.224   705.220   310.269     7.935    -1.278    -1.778
  3931.660   635.050   314.266     6.670    -1.566    -1.445
  4877.554   564.480   319.095     4.983    -2.494    -1.737
  5899.018   495.730   324.297     3.237    -3.493    -2.000
  6979.033   430.710   329.482     1.790    -3.954    -2.308
  8098.103   370.780   333.561     1.032    -5.113    -3.245
  9236.574   316.720   336.768     0.554    -9.012    -4.614
 10377.391   268.820   339.286     0.232   -13.119    -6.155
 11506.849   226.980   341.158     0.088   -16.465    -8.020
 12616.017   190.820   343.046     0.033   -19.761    -8.778
 13702.210   159.870   347.801     0.013   -20.820    -3.848
 14771.097   133.550   356.109     0.007   -14.342     1.109
 15829.963   111.290   368.479     0.004   -11.317    -0.777
 16894.027    92.560   390.986     0.006   -11.265    -3.093
 253.375,  19,  1012.  day,levels,pres0
   182.008   991.250   297.999    16.792     3.601     4.102
   594.731   945.500   298.843    15.111     4.116     3.032
  1080.207   893.790   300.488    12.872     3.979     1.463
  1649.677   836.060   303.030    10.570     2.434     0.165
  2312.331   772.820   306.445     8.629    -0.201    -0.855
  3073.294   705.220   310.269     7.845    -1.292    -1.177
  3930.724   635.050   314.296     6.585    -1.735    -0.991
  4876.747   564.480   319.172     4.969    -2.682    -1.058
  5898.570   495.730   324.439     3.294    -3.859    -1.351
  6979.053   430.710   329.594     1.877    -4.986    -1.849
  8098.795   370.780   333.827     1.060    -6.592    -2.891
  9238.330   316.720   337.131     0.528    -9.984    -4.460
 10380.697   268.820   339.855     0.218   -13.326    -6.550
 11512.565   226.980   342.053     0.083   -16.814    -8.936
 12625.039   190.820   344.197     0.032   -20.301   -10.063
 13714.627   159.870   348.805     0.013   -21.557    -4.603
 14786.576   133.550   357.121     0.007   -15.621     0.899
 15848.096   111.290   369.275     0.005   -13.022    -1.011
 16914.037    92.560   391.520     0.006   -12.695    -2.763
 253.5,  19,  1012.  day,levels,pres0
   181.989   991.250   298.003    16.595     4.240     3.397
   594.725   945.500   298.918    14.982     4.678     2.477
  1080.228   893.790   300.454    12.968     4.393     1.137
  1649.598   836.060   302.877    10.911     2.805     0.248
  2312.133   772.820   306.401     8.773     0.069    -0.704
  3073.238   705.220   310.423     7.740    -1.003    -0.534
  3931.012   635.050   314.423     6.531    -1.655    -0.345
  4877.323   564.480   319.242     4.997    -2.853    -0.307
  5899.613   495.730   324.643     3.379    -4.294    -0.537
  6980.993   430.710   329.896     1.987    -5.764    -0.597
  8102.087   370.780   334.297     1.108    -7.790    -1.393
  9243.504   316.720   337.763     0.525   -10.651    -3.401
 10388.250   268.820   340.637     0.218   -13.142    -6.405
 11522.936   226.980   342.972     0.084   -16.710    -9.286
 12638.476   190.820   345.171     0.033   -20.575   -10.556
 13730.478   159.870   349.355     0.013   -21.294    -5.290
 14803.621   133.550   357.349     0.007   -16.524     0.308
 15865.729   111.290   369.448     0.005   -14.675    -1.024
 16932.297    92.560   391.798     0.006   -13.589    -1.853
 253.625,  19,  1012.  day,levels,pres0
   181.970   991.250   297.967    16.623     4.666     2.077
   594.710   945.500   298.970    14.901     5.028     1.189
  1080.335   893.790   300.566    12.972     4.491     0.375
  1649.900   836.060   302.940    11.082     2.816     0.026
  2312.599   772.820   306.419     8.982     0.359    -0.695
  3073.833   705.220   310.459     7.801    -0.751    -0.263
  3931.677   635.050   314.419     6.567    -1.533     0.294
  4877.927   564.480   319.183     5.068    -2.739     0.431
  5900.129   495.730   324.619     3.455    -4.379     0.519
  6981.646   430.710   329.969     2.087    -6.077     1.197
  8103.155   370.780   334.442     1.150    -8.289     0.798
  9245.275   316.720   338.021     0.548   -10.925    -1.702
 10390.900   268.820   340.892     0.231   -13.294    -5.147
 11526.404   226.980   343.206     0.088   -16.825    -8.833
 12642.643   190.820   345.367     0.033   -20.880   -10.386
 13734.160   159.870   348.833     0.013   -21.106    -5.875
 14805.027   133.550   356.360     0.007   -17.194    -0.650
 15865.470   111.290   369.320     0.005   -15.620    -1.092
 16932.275    92.560   392.106     0.007   -13.532    -1.006
 253.75,  19,  1012.  day,levels,pres0
   181.873   991.250   297.797    16.689     4.790     0.814
   594.483   945.500   298.951    14.845     5.083    -0.013
  1080.140   893.790   300.631    12.995     4.412    -0.584
  1649.870   836.060   303.012    11.259     2.723    -0.451
  2312.713   772.820   306.412     9.162     0.603    -0.652
  3073.933   705.220   310.413     7.837    -0.565    -0.004
  3931.589   635.050   314.324     6.542    -1.612     0.983
  4877.586   564.480   319.111     5.083    -2.627     1.269
  5899.524   495.730   324.512     3.506    -4.119     1.609
  6980.634   430.710   329.806     2.154    -5.838     2.791
  8101.563   370.780   334.242     1.178    -8.059     2.530
  9242.908   316.720   337.753     0.575   -10.659    -0.382
 10387.531   268.820   340.556     0.247   -13.435    -4.028
 11521.895   226.980   342.850     0.091   -17.259    -8.133
 12637.079   190.820   345.073     0.033   -21.131   -10.162
 13726.984   159.870   348.091     0.013   -21.137    -6.633
 14795.263   133.550   355.392     0.007   -17.532    -1.617
 15854.204   111.290   369.286     0.005   -16.225    -1.033
 16921.490    92.560   392.495     0.007   -13.371    -0.335
 253.875,  19,  1012.  day,levels,pres0
   181.805   991.250   297.695    16.634     4.383     0.048
   594.332   945.500   298.956    14.772     4.667    -0.503
  1080.020   893.790   300.688    12.944     4.136    -1.111
  1649.945   836.060   303.173    11.260     2.590    -0.842
  2313.117   772.820   306.551     9.168     0.666    -0.651
  3074.638   705.220   310.531     7.757    -0.478     0.282
  3932.487   635.050   314.384     6.426    -1.797     1.626
  4878.501   564.480   319.093     5.039    -2.845     2.105
  5900.207   495.730   324.382     3.552    -4.011     2.416
  6980.685   430.710   329.543     2.148    -5.433     3.414
  8100.409   370.780   333.793     1.158    -7.755     2.835
  9239.884   316.720   337.099     0.576   -10.374    -0.113
 10382.232   268.820   339.862     0.245   -13.500    -3.974
 11514.502   226.980   342.287     0.089   -17.463    -8.046
 12627.958   190.820   344.572     0.033   -20.875    -9.848
 13716.273   159.870   347.581     0.013   -21.192    -7.264
 14783.033   133.550   354.903     0.006   -18.203    -2.427
 15841.020   111.290   369.130     0.005   -16.706    -0.554
 16908.625    92.560   392.892     0.008   -12.881     0.405
 254.,  19,  1012.  day,levels,pres0
   181.845   991.250   297.752    16.682     3.939     0.008
   594.490   945.500   299.066    14.753     4.327    -0.296
  1080.391   893.790   300.868    12.809     3.915    -1.073
  1650.697   836.060   303.446    11.125     2.513    -0.987
  2314.387   772.820   306.804     9.039     0.709    -0.360
  3076.437   705.220   310.748     7.668    -0.387     1.025
  3934.800   635.050   314.565     6.388    -2.029     2.579
  4881.018   564.480   319.060     4.994    -3.248     3.080
  5902.325   495.730   324.170     3.544    -4.093     3.128
  6981.843   430.710   329.188     2.068    -5.387     3.386
  8099.979   370.780   333.240     1.052    -8.060     2.296
  9237.276   316.720   336.402     0.513   -10.856    -0.654
 10377.352   268.820   339.232     0.216   -14.084    -4.355
 11507.883   226.980   341.883     0.081   -17.931    -7.638
 12620.299   190.820   344.341     0.031   -20.644    -9.060
 13708.190   159.870   347.548     0.012   -21.110    -7.342
 14775.029   133.550   354.992     0.006   -18.711    -2.692
 15833.103   111.290   369.098     0.005   -16.671     0.337
 16901.301    92.560   393.360     0.008   -11.936     1.226
 254.125,  19,  1012.  day,levels,pres0
   181.908   991.250   297.842    16.757     3.666     0.332
   594.700   945.500   299.160    14.831     4.251     0.109
  1080.803   893.790   301.025    12.730     4.010    -0.872
  1651.332   836.060   303.557    11.033     2.800    -1.093
  2315.300   772.820   306.986     8.930     0.944     0.004
  3077.737   705.220   310.928     7.520    -0.412     1.738
  3936.420   635.050   314.660     6.308    -2.354     3.264
  4882.419   564.480   318.849     4.890    -3.998     3.673
  5902.776   495.730   323.829     3.398    -4.806     3.376
  6980.751   430.710   328.659     1.876    -5.961     2.908
  8096.960   370.780   332.701     0.881    -8.914     1.269
  9232.474   316.720   335.951     0.396   -12.012    -1.377
 10371.027   268.820   338.816     0.168   -15.383    -4.117
 11500.594   226.980   341.736     0.069   -18.680    -5.812
 12613.090   190.820   344.549     0.028   -20.566    -7.129
 13702.121   159.870   348.073     0.011   -20.713    -6.413
 14770.354   133.550   355.381     0.006   -18.496    -1.875
 15828.908   111.290   369.026     0.004   -15.482     1.510
 16896.932    92.560   393.308     0.007   -10.291     2.035
 254.25,  19,  1012.  day,levels,pres0
   181.981   991.250   297.960    16.766     3.350     0.589
   594.836   945.500   299.122    14.882     4.004     0.209
  1080.887   893.790   301.006    12.640     3.861    -0.932
  1651.310   836.060   303.482    11.022     2.820    -1.207
  2315.249   772.820   307.025     8.992     0.990     0.115
  3077.791   705.220   310.982     7.407    -0.521     2.129
  3936.476   635.050   314.657     6.152    -2.781     3.490
  4882.164   564.480   318.706     4.701    -5.031     3.598
  5901.762   495.730   323.577     3.151    -5.884     2.943
  6978.560   430.710   328.289     1.657    -6.827     1.896
  8093.678   370.780   332.507     0.712    -9.888     0.370
  9229.024   316.720   336.113     0.281   -13.171    -1.342
 10368.152   268.820   339.029     0.123   -16.679    -2.423
 11498.639   226.980   342.093     0.060   -19.305    -2.895
 12612.740   190.820   345.191     0.027   -20.228    -4.774
 13704.267   159.870   349.025     0.011   -20.008    -5.050
 14775.320   133.550   356.285     0.006   -17.294    -0.506
 15835.838   111.290   369.453     0.004   -13.452     2.568
 16904.270    92.560   393.157     0.007    -8.367     2.505
 254.375,  19,  1012.  day,levels,pres0
   182.079   991.250   298.131    16.705     2.814     0.498
   595.039   945.500   299.122    14.833     3.295    -0.103
  1081.059   893.790   300.997    12.518     3.068    -1.247
  1651.453   836.060   303.495    10.956     2.109    -1.236
  2315.400   772.820   307.027     9.026     0.665     0.304
  3077.958   705.220   311.009     7.294    -0.689     2.317
  3936.663   635.050   314.705     5.950    -3.408     3.373
  4882.353   564.480   318.753     4.428    -6.563     2.731
  5901.698   495.730   323.480     2.849    -7.226     1.744
  6977.968   430.710   328.169     1.438    -7.771     0.596
  8093.126   370.780   332.729     0.580   -10.596    -0.160
  9229.874   316.720   336.761     0.242   -13.794    -0.408
 10371.469   268.820   339.856     0.119   -17.134    -0.604
 11504.735   226.980   342.942     0.059   -19.329    -1.356
 12621.688   190.820   346.103     0.027   -19.665    -3.495
 13716.418   159.870   350.157     0.012   -19.153    -3.849
 14791.555   133.550   357.852     0.006   -15.472     0.601
 15855.898   111.290   370.489     0.005   -11.083     3.093
 16925.176    92.560   392.685     0.007    -6.771     2.174
 254.5,  19,  1012.  day,levels,pres0
   182.163   991.250   298.282    16.631     2.228     0.328
   595.244   945.500   299.152    14.862     2.511    -0.318
  1081.329   893.790   301.043    12.521     2.130    -1.582
  1651.869   836.060   303.622    10.850     1.135    -1.454
  2315.978   772.820   307.084     8.940     0.026     0.218
  3078.614   705.220   311.047     7.209    -1.185     1.987
  3937.311   635.050   314.698     5.834    -4.069     2.735
  4882.962   564.480   318.790     4.249    -7.814     1.427
  5902.270   495.730   323.503     2.597    -8.456     0.340
  6978.371   430.710   328.132     1.242    -8.606    -0.584
  8093.544   370.780   332.830     0.520   -10.855    -0.297
  9231.093   316.720   337.144     0.274   -13.698     0.737
 10374.214   268.820   340.371     0.136   -16.562     0.306
 11509.296   226.980   343.518     0.064   -18.664    -1.340
 12628.165   190.820   346.708     0.029   -19.109    -2.792
 13725.242   159.870   351.050     0.012   -18.212    -2.491
 14803.862   133.550   359.265     0.007   -13.159     1.319
 15871.284   111.290   371.162     0.005    -8.556     3.070
 16940.361    92.560   391.830     0.007    -5.584     1.221
 254.625,  19,  1012.  day,levels,pres0
   182.247   991.250   298.414    16.666     1.697     0.218
   595.461   945.500   299.182    14.990     1.875    -0.432
  1081.612   893.790   301.066    12.545     1.445    -1.797
  1652.260   836.060   303.724    10.772     0.406    -1.752
  2316.515   772.820   307.144     8.865    -0.567    -0.255
  3079.187   705.220   311.033     7.195    -1.748     1.293
  3937.661   635.050   314.546     5.860    -4.515     1.493
  4882.829   564.480   318.624     4.197    -8.184     0.009
  5901.810   495.730   323.513     2.410    -8.899    -0.945
  6977.821   430.710   328.140     1.063    -8.718    -1.464
  8093.124   370.780   332.939     0.506   -10.329    -0.354
  9231.265   316.720   337.381     0.315   -12.807     1.291
 10375.073   268.820   340.527     0.153   -15.384     0.386
 11510.494   226.980   343.558     0.072   -17.717    -1.750
 12629.578   190.820   346.800     0.032   -18.620    -1.881
 13727.682   159.870   351.623     0.013   -17.098    -1.180
 14808.602   133.550   360.216     0.007   -10.997     1.665
 15877.829   111.290   371.428     0.006    -6.463     2.958
 16945.766    92.560   390.713     0.007    -4.620     0.506
 254.75,  19,  1012.  day,levels,pres0
   182.389   991.250   298.598    16.932     1.492     0.094
   595.828   945.500   299.230    15.237     1.604    -0.577
  1082.053   893.790   301.041    12.667     1.004    -1.775
  1652.742   836.060   303.745    10.913    -0.164    -1.890
  2317.083   772.820   307.170     8.900    -1.044    -0.826
  3079.723   705.220   310.980     7.152    -2.247     0.296
  3937.931   635.050   314.414     5.844    -5.164    -0.138
  4882.632   564.480   318.467     4.081    -8.512    -1.427
  5901.235   495.730   323.496     2.214    -9.086    -2.126
  6977.161   430.710   328.169     0.947    -8.585    -2.144
  8092.401   370.780   332.888     0.545    -9.469    -0.362
  9230.238   316.720   337.232     0.367   -11.392     1.140
 10373.409   268.820   340.278     0.185   -13.902    -0.138
 11507.592   226.980   343.045     0.084   -16.716    -1.809
 12625.268   190.820   346.444     0.036   -18.249    -1.270
 13723.178   159.870   351.870     0.015   -16.459    -0.614
 14804.908   133.550   360.503     0.008    -9.840     1.641
 15874.254   111.290   371.208     0.006    -4.903     2.483
 16940.602    92.560   389.781     0.006    -4.019    -0.107
 254.875,  19,  1012.  day,levels,pres0
   182.418   991.250   298.600    17.184     1.724    -0.218
   595.880   945.500   299.180    15.427     1.827    -0.925
  1082.087   893.790   300.997    12.883     0.921    -1.683
  1652.897   836.060   303.843    11.117    -0.652    -1.991
  2317.564   772.820   307.324     8.945    -1.735    -1.622
  3080.382   705.220   310.956     7.171    -3.083    -1.263
  3938.369   635.050   314.282     5.799    -6.127    -1.923
  4882.787   564.480   318.456     3.898    -8.913    -2.751
  5901.219   495.730   323.470     2.033    -9.299    -3.248
  6976.990   430.710   328.138     0.941    -8.599    -2.818
  8091.689   370.780   332.575     0.638    -8.453    -0.574
  9227.827   316.720   336.503     0.432    -9.750     0.495
 10368.154   268.820   339.296     0.219   -12.141    -0.893
 11498.855   226.980   341.918     0.094   -15.690    -1.597
 12613.267   190.820   345.561     0.039   -18.063    -1.054
 13709.059   159.870   351.415     0.017   -16.479    -0.372
 14789.193   133.550   359.903     0.008    -9.227     1.917
 15857.454   111.290   371.078     0.006    -3.423     2.092
 16923.840    92.560   389.945     0.007    -3.605    -0.446
 255.,  19,  1012.  day,levels,pres0
   182.347   991.250   298.471    17.257     2.375    -0.616
   595.666   945.500   299.075    15.515     2.536    -1.265
  1081.846   893.790   301.026    13.031     1.420    -1.576
  1652.986   836.060   304.138    11.111    -0.694    -2.255
  2318.344   772.820   307.703     8.752    -2.543    -2.717
  3081.766   705.220   311.131     7.005    -4.572    -3.135
  3939.733   635.050   314.156     5.602    -7.539    -3.794
  4883.717   564.480   318.374     3.666    -9.390    -4.157
  5901.847   495.730   323.433     1.903    -9.434    -4.348
  6977.301   430.710   327.997     0.992    -8.504    -3.452
  8091.093   370.780   332.143     0.736    -7.618    -1.314
  9225.063   316.720   335.619     0.482    -8.373    -0.397
 10362.104   268.820   338.216     0.231   -10.689    -1.104
 11488.983   226.980   340.687     0.098   -14.776    -1.110
 12599.722   190.820   344.530     0.041   -17.801    -0.448
 13692.512   159.870   350.541     0.018   -16.440     0.672
 14769.705   133.550   358.836     0.008    -8.211     2.374
 15835.867   111.290   370.728     0.007    -2.033     1.495
 16902.566    92.560   390.544     0.007    -3.382    -0.765
 255.125,  19,  1012.  day,levels,pres0
   182.273   991.250   298.352    17.238     3.052    -1.117
   595.492   945.500   299.058    15.484     3.146    -1.677
  1081.775   893.790   301.185    12.990     2.103    -1.960
  1653.311   836.060   304.448    10.900    -0.314    -2.857
  2319.268   772.820   308.041     8.444    -3.283    -3.911
  3083.119   705.220   311.256     6.688    -6.570    -4.772
  3940.826   635.050   313.959     5.273    -9.366    -5.361
  4884.078   564.480   318.183     3.463    -9.821    -5.318
  5901.746   495.730   323.391     1.824    -9.287    -4.763
  6976.817   430.710   327.814     1.024    -8.329    -3.353
  8089.485   370.780   331.640     0.765    -7.260    -1.679
  9221.418   316.720   334.910     0.484    -7.356    -1.061
 10356.282   268.820   337.636     0.231    -9.575    -1.330
 11480.891   226.980   339.894     0.098   -13.940    -0.915
 12589.254   190.820   343.861     0.041   -17.513     0.311
 13680.450   159.870   350.204     0.018   -15.487     2.147
 14756.412   133.550   358.358     0.008    -6.198     2.790
 15821.428   111.290   370.427     0.006    -0.889     0.611
 16888.186    92.560   390.904     0.008    -3.801    -1.125
 255.25,  19,  1012.  day,levels,pres0
   182.228   991.250   298.303    17.103     3.040    -1.590
   595.401   945.500   299.089    15.368     3.002    -2.070
  1081.725   893.790   301.242    12.902     2.106    -2.629
  1653.310   836.060   304.486    10.752    -0.214    -3.513
  2319.329   772.820   308.106     8.342    -4.046    -4.694
  3083.073   705.220   311.157     6.494    -8.246    -5.459
  3940.250   635.050   313.766     4.959   -10.887    -5.645
  4883.019   564.480   318.150     3.282   -10.078    -5.443
  5900.870   495.730   323.599     1.728    -8.824    -4.408
  6976.491   430.710   327.965     0.984    -7.974    -2.939
  8089.199   370.780   331.522     0.731    -7.265    -1.560
  9220.622   316.720   334.738     0.467    -6.946    -1.314
 10355.089   268.820   337.580     0.229    -9.054    -1.561
 11479.454   226.980   339.804     0.095   -13.612    -0.928
 12587.926   190.820   344.025     0.041   -17.530     1.004
 13680.267   159.870   350.779     0.018   -13.955     3.455
 14757.769   133.550   358.793     0.008    -4.216     2.827
 15823.814   111.290   370.692     0.007    -0.754    -0.228
 16891.018    92.560   390.951     0.007    -4.760    -1.191
 255.375,  19,  1012.  day,levels,pres0
   182.244   991.250   298.364    16.916     2.717    -1.683
   595.457   945.500   299.153    15.172     2.499    -2.085
  1081.803   893.790   301.259    12.796     1.535    -2.847
  1653.402   836.060   304.493    10.808    -0.633    -3.717
  2319.450   772.820   308.094     8.457    -4.845    -4.532
  3083.016   705.220   311.020     6.391    -9.345    -5.088
  3939.869   635.050   313.736     4.706   -11.794    -4.884
  4882.723   564.480   318.325     3.100   -10.289    -4.835
  5901.315   495.730   323.949     1.626    -8.417    -3.921
  6978.035   430.710   328.316     0.907    -7.659    -2.533
  8091.783   370.780   331.810     0.687    -7.355    -1.319
  9224.091   316.720   334.981     0.454    -6.866    -1.328
 10359.292   268.820   337.775     0.220    -9.011    -1.702
 11484.676   226.980   340.231     0.091   -13.893    -0.725
 12594.841   190.820   344.649     0.039   -17.948     1.825
 13689.537   159.870   351.660     0.018   -12.353     4.568
 14769.396   133.550   359.459     0.008    -2.826     2.940
 15836.818   111.290   370.958     0.007    -1.408    -0.400
 16904.018    92.560   390.669     0.007    -5.693    -0.264
 255.5,  19,  1012.  day,levels,pres0
   182.300   991.250   298.464    16.867     2.527    -1.384
   595.621   945.500   299.211    15.204     2.376    -1.947
  1082.064   893.790   301.268    13.062     1.396    -2.710
  1653.652   836.060   304.368    11.102    -0.812    -3.644
  2319.447   772.820   307.911     8.556    -5.160    -4.068
  3082.607   705.220   310.864     6.344    -9.752    -4.528
  3939.136   635.050   313.699     4.539   -12.323    -4.271
  4881.948   564.480   318.403     2.917   -10.671    -4.069
  5900.865   495.730   324.136     1.519    -8.212    -3.539
  6978.223   430.710   328.548     0.856    -7.018    -2.226
  8092.917   370.780   332.155     0.669    -6.746    -1.355
  9226.355   316.720   335.309     0.439    -6.341    -1.419
 10362.685   268.820   338.123     0.206    -8.770    -1.533
 11489.566   226.980   340.795     0.087   -14.079     0.095
 12601.397   190.820   345.111     0.037   -17.906     3.109
 13697.514   159.870   352.100     0.017   -10.715     5.564
 14778.458   133.550   359.729     0.008    -1.485     3.015
 15845.815   111.290   370.628     0.006    -2.062     0.089
 16911.887    92.560   390.190     0.007    -6.066     1.636
 255.625,  19,  1012.  day,levels,pres0
   182.384   991.250   298.580    16.981     2.642    -1.377
   595.838   945.500   299.226    15.441     2.530    -2.141
  1082.319   893.790   301.182    13.469     1.466    -2.911
  1653.627   836.060   304.041    11.314    -0.934    -3.879
  2318.840   772.820   307.669     8.542    -5.279    -4.080
  3081.667   705.220   310.846     6.325    -9.786    -4.827
  3938.161   635.050   313.721     4.401   -12.475    -4.521
  4880.990   564.480   318.434     2.844   -10.599    -3.544
  5900.007   495.730   324.188     1.492    -7.332    -2.946
  6977.530   430.710   328.599     0.867    -5.708    -2.094
  8092.557   370.780   332.298     0.684    -5.252    -1.402
  9226.652   316.720   335.551     0.443    -5.297    -1.577
 10364.018   268.820   338.497     0.207    -7.977    -1.197
 11491.973   226.980   341.064     0.087   -13.385     1.335
 12604.256   190.820   345.115     0.036   -16.550     4.614
 13700.081   159.870   351.908     0.017    -8.647     6.388
 14779.799   133.550   359.102     0.008    -0.542     3.271
 15844.550   111.290   369.457     0.005    -2.441     0.988
 16908.324    92.560   389.742     0.006    -5.986     3.383
 255.75,  19,  1012.  day,levels,pres0
   182.387   991.250   298.554    17.157     2.333    -1.755
   595.860   945.500   299.214    15.623     2.313    -2.615
  1082.285   893.790   301.065    13.608     1.142    -3.130
  1653.302   836.060   303.812    11.377    -1.261    -4.036
  2318.201   772.820   307.568     8.706    -5.553    -4.490
  3081.031   705.220   310.894     6.467   -10.174    -5.653
  3937.756   635.050   313.821     4.366   -12.882    -5.271
  4880.773   564.480   318.458     2.881   -10.274    -3.698
  5899.808   495.730   324.154     1.556    -6.049    -2.622
  6977.107   430.710   328.467     0.950    -4.061    -1.998
  8091.787   370.780   332.197     0.739    -3.456    -1.393
  9225.729   316.720   335.545     0.479    -3.933    -1.553
 10363.058   268.820   338.470     0.225    -6.668    -0.818
 11490.554   226.980   340.805     0.091   -11.803     2.051
 12601.660   190.820   344.642     0.038   -14.263     5.253
 13695.843   159.870   351.333     0.017    -6.422     6.556
 14773.269   133.550   358.159     0.008     0.482     3.086
 15835.375   111.290   368.594     0.005    -2.242     1.761
 16898.162    92.560   389.929     0.006    -5.617     4.454
 255.875,  19,  1012.  day,levels,pres0
   182.258   991.250   298.327    17.237     1.520    -2.033
   595.529   945.500   299.128    15.660     1.793    -2.965
  1081.874   893.790   301.046    13.611     0.668    -3.138
  1652.923   836.060   303.868    11.359    -1.825    -3.940
  2317.910   772.820   307.552     8.942    -6.151    -4.895
  3080.675   705.220   310.770     6.688   -10.975    -6.328
  3937.414   635.050   313.920     4.349   -13.703    -5.885
  4880.852   564.480   318.656     2.823   -10.098    -4.176
  5900.279   495.730   324.197     1.631    -4.695    -2.664
  6977.761   430.710   328.492     1.087    -2.505    -2.190
  8092.578   370.780   332.208     0.826    -2.040    -1.667
  9226.563   316.720   335.532     0.522    -2.654    -1.380
 10363.439   268.820   338.197     0.239    -5.133    -0.236
 11489.824   226.980   340.402     0.093    -9.580     2.058
 12599.659   190.820   344.260     0.038   -11.262     4.705
 13692.578   159.870   350.910     0.017    -3.983     5.866
 14768.336   133.550   357.478     0.007     1.302     2.412
 15829.398   111.290   368.578     0.005    -2.239     2.271
 16893.281    92.560   390.748     0.006    -4.967     5.101
 256.,  19,  1012.  day,levels,pres0
   182.128   991.250   298.134    17.133     1.324    -2.239
   595.203   945.500   299.076    15.560     1.722    -3.261
  1081.586   893.790   301.145    13.713     0.659    -3.248
  1652.927   836.060   304.035    11.497    -2.095    -3.634
  2318.132   772.820   307.539     9.041    -6.792    -4.917
  3080.736   705.220   310.656     6.559   -11.987    -6.308
  3937.377   635.050   314.029     4.147   -14.430    -5.656
  4881.371   564.480   318.995     2.658   -10.074    -4.014
  5901.561   495.730   324.370     1.623    -3.648    -2.753
  6979.404   430.710   328.512     1.211    -1.422    -2.685
  8094.298   370.780   332.193     0.901    -1.354    -2.113
  9228.178   316.720   335.465     0.542    -2.025    -0.821
 10364.473   268.820   337.910     0.236    -3.854     0.909
 11489.984   226.980   340.165     0.092    -7.168     2.037
 12599.942   190.820   344.588     0.038    -8.287     3.870
 13693.495   159.870   350.978     0.017    -1.876     4.859
 14768.746   133.550   357.063     0.007     1.678     1.700
 15829.500   111.290   368.799     0.005    -2.549     2.547
 16894.914    92.560   391.637     0.007    -4.437     5.404
 256.125,  19,  1012.  day,levels,pres0
   182.040   991.250   298.001    17.073     2.080    -2.515
   594.963   945.500   299.011    15.498     2.266    -3.473
  1081.320   893.790   301.184    13.746     1.077    -3.224
  1652.798   836.060   304.142    11.465    -1.965    -3.273
  2318.077   772.820   307.528     8.916    -7.090    -4.765
  3080.570   705.220   310.645     6.316   -12.499    -5.707
  3937.132   635.050   314.074     3.910   -14.352    -4.878
  4881.390   564.480   319.178     2.645    -9.572    -3.114
  5902.011   495.730   324.460     1.624    -3.222    -2.473
  6979.840   430.710   328.411     1.206    -1.288    -2.816
  8094.230   370.780   331.995     0.900    -1.672    -1.876
  9227.383   316.720   335.238     0.523    -1.756    -0.061
 10362.887   268.820   337.676     0.217    -2.810     1.839
 11488.052   226.980   340.202     0.087    -5.894     2.392
 12599.092   190.820   345.235     0.037    -7.226     3.888
 13693.836   159.870   351.076     0.016    -1.009     4.600
 14768.707   133.550   356.704     0.007     1.684     1.506
 15828.992   111.290   368.848     0.004    -2.802     2.889
 16895.539    92.560   392.415     0.007    -4.104     5.753
 256.25,  19,  1012.  day,levels,pres0
   182.006   991.250   297.930    17.153     2.374    -2.669
   594.832   945.500   298.945    15.403     2.422    -3.581
  1081.018   893.790   301.101    13.506     1.118    -3.111
  1652.284   836.060   304.099    11.172    -1.876    -3.066
  2317.347   772.820   307.456     8.749    -7.160    -4.707
  3079.535   705.220   310.508     6.282   -11.983    -5.478
  3935.706   635.050   313.943     3.852   -13.386    -4.711
  4879.638   564.480   319.083     2.752    -8.625    -2.546
  5900.195   495.730   324.495     1.630    -2.863    -1.740
  6978.075   430.710   328.423     1.106    -1.473    -1.938
  8092.419   370.780   331.989     0.830    -2.124    -0.677
  9225.624   316.720   335.301     0.470    -1.617     0.903
 10361.643   268.820   337.939     0.190    -2.083     2.527
 11488.197   226.980   340.791     0.081    -5.860     3.034
 12600.942   190.820   345.695     0.036    -7.808     4.661
 13696.438   159.870   351.082     0.015    -1.118     5.214
 14771.322   133.550   356.707     0.007     1.195     2.081
 15832.813   111.290   369.692     0.004    -3.244     3.447
 16901.906    92.560   393.390     0.007    -3.879     6.168
 256.375,  19,  1012.  day,levels,pres0
   181.930   991.250   297.808    17.140     1.304    -2.454
   594.590   945.500   298.851    15.282     1.451    -3.467
  1080.501   893.790   300.925    13.238     0.451    -3.047
  1651.339   836.060   303.911    10.942    -2.177    -3.036
  2315.952   772.820   307.298     8.625    -6.838    -4.767
  3077.798   705.220   310.408     6.311   -10.590    -6.025
  3933.823   635.050   313.903     4.007   -11.443    -5.721
  4877.748   564.480   319.051     2.939    -7.186    -2.929
  5898.577   495.730   324.649     1.711    -1.913    -1.087
  6977.346   430.710   328.798     1.102    -1.248    -0.658
  8093.144   370.780   332.489     0.782    -2.169     0.820
  9228.230   316.720   335.931     0.428    -1.585     2.040
 10366.746   268.820   338.807     0.174    -1.830     3.348
 11496.154   226.980   341.645     0.078    -6.286     3.926
 12610.450   190.820   345.779     0.034    -8.381     5.621
 13705.619   159.870   350.781     0.015    -1.394     5.976
 14780.316   133.550   356.897     0.007     0.276     3.124
 15844.492   111.290   371.377     0.005    -3.690     4.126
 16917.688    92.560   394.619     0.008    -3.316     6.354
 256.5,  19,  1012.  day,levels,pres0
   181.798   991.250   297.643    16.855    -0.057    -1.989
   594.236   945.500   298.802    14.983    -0.024    -2.921
  1080.013   893.790   300.910    12.978    -0.476    -2.851
  1650.637   836.060   303.804    10.636    -2.522    -3.012
  2315.022   772.820   307.270     8.530    -6.325    -4.946
  3076.935   705.220   310.492     6.400    -9.364    -6.995
  3933.404   635.050   314.067     4.327    -9.594    -7.154
  4877.814   564.480   319.094     3.229    -5.758    -3.979
  5898.832   495.730   324.613     1.989    -0.742    -1.170
  6978.062   430.710   329.029     1.269    -0.688     0.158
  8095.297   370.780   333.073     0.829    -1.731     2.005
  9232.626   316.720   336.658     0.435    -1.191     3.111
 10373.715   268.820   339.602     0.185    -1.690     4.246
 11505.044   226.980   341.993     0.080    -6.001     5.009
 12619.013   190.820   345.206     0.033    -7.826     6.459
 13711.834   159.870   349.853     0.014    -1.433     6.164
 14785.135   133.550   356.931     0.007    -0.650     3.867
 15851.342   111.290   372.767     0.006    -4.309     4.661
 16927.373    92.560   395.229     0.008    -2.655     6.146
 256.625,  19,  1012.  day,levels,pres0
   181.703   991.250   297.587    16.307    -0.425    -0.874
   594.144   945.500   299.039    14.556    -0.658    -2.017
  1080.254   893.790   301.214    12.697    -0.862    -2.358
  1651.345   836.060   304.120    10.225    -2.593    -2.867
  2316.151   772.820   307.471     8.233    -6.152    -5.216
  3078.307   705.220   310.547     6.374    -8.940    -7.769
  3934.853   635.050   314.019     4.602    -8.858    -8.109
  4878.991   564.480   318.877     3.359    -5.029    -5.233
  5899.155   495.730   324.202     2.298    -0.061    -2.077
  6977.641   430.710   328.883     1.520     0.142     0.184
  8094.862   370.780   333.144     0.929    -0.690     2.369
  9232.690   316.720   336.855     0.478    -0.543     3.636
 10374.458   268.820   339.793     0.210    -1.600     4.911
 11505.824   226.980   341.810     0.086    -4.785     5.761
 12618.157   190.820   344.363     0.034    -6.143     6.755
 13707.938   159.870   348.755     0.014    -1.394     5.903
 14779.738   133.550   357.073     0.007    -1.758     4.178
 15846.870   111.290   373.267     0.006    -4.738     4.939
 16923.219    92.560   394.935     0.008    -2.180     5.550
 256.75,  19,  1012.  day,levels,pres0
   181.744   991.250   297.716    15.960     0.316     0.310
   594.404   945.500   299.322    14.387     0.066    -1.262
  1080.967   893.790   301.547    12.549    -0.516    -2.043
  1652.663   836.060   304.504     9.966    -2.662    -2.993
  2318.046   772.820   307.741     7.818    -6.137    -5.387
  3080.613   705.220   310.733     6.136    -8.501    -7.676
  3937.302   635.050   313.992     4.540    -8.620    -7.897
  4881.224   564.480   318.798     3.215    -4.638    -5.567
  5900.841   495.730   323.953     2.337     0.078    -2.714
  6978.410   430.710   328.545     1.633     0.662    -0.354
  8094.615   370.780   332.844     1.000     0.272     1.933
  9231.468   316.720   336.553     0.537     0.109     3.440
 10372.059   268.820   339.378     0.233    -1.579     5.042
 11501.949   226.980   341.329     0.090    -3.983     5.937
 12612.338   190.820   343.638     0.035    -4.836     6.478
 13699.862   159.870   348.046     0.014    -1.393     5.326
 14770.877   133.550   357.287     0.007    -2.940     3.891
 15838.541   111.290   373.415     0.007    -4.980     4.963
 16914.291    92.560   394.341     0.008    -1.520     4.857
 256.875,  19,  1012.  day,levels,pres0
   181.907   991.250   297.942    16.186     1.306     0.978
   594.858   945.500   299.430    14.637     1.113    -0.788
  1081.597   893.790   301.598    12.623    -0.066    -1.867
  1653.224   836.060   304.363     9.975    -2.433    -2.915
  2318.295   772.820   307.620     7.683    -5.602    -5.206
  3080.871   705.220   310.935     5.899    -7.500    -7.232
  3938.100   635.050   314.251     4.432    -7.582    -7.110
  4882.775   564.480   319.092     3.084    -3.691    -5.004
  5903.026   495.730   324.103     2.230     0.436    -2.520
  6980.744   430.710   328.517     1.564     1.121    -0.587
  8096.495   370.780   332.611     1.010     0.553     1.192
  9232.322   316.720   336.172     0.570     0.247     2.845
 10371.407   268.820   338.855     0.239    -1.741     4.651
 11499.727   226.980   340.906     0.089    -3.975     5.518
 12609.110   190.820   343.447     0.035    -4.444     5.557
 13696.427   159.870   348.111     0.014    -1.931     4.203
 14767.477   133.550   357.243     0.008    -3.960     3.254
 15835.104   111.290   373.436     0.007    -4.968     4.686
 16910.088    92.560   393.757     0.008    -0.986     3.423
 257.,  19,  1012.  day,levels,pres0
   182.039   991.250   298.056    16.757     1.703     1.446
   595.134   945.500   299.319    15.198     1.575    -0.029
  1081.640   893.790   301.257    12.958     0.358    -1.077
  1652.562   836.060   303.824    10.348    -1.625    -1.927
  2316.707   772.820   307.204     7.865    -4.430    -4.188
  3078.707   705.220   310.843     5.956    -6.270    -6.338
  3936.107   635.050   314.462     4.426    -5.808    -5.886
  4881.544   564.480   319.434     2.876    -2.073    -3.953
  5902.658   495.730   324.387     2.014     1.113    -1.821
  6981.175   430.710   328.789     1.415     1.609    -0.228
  8097.270   370.780   332.574     0.974     0.690     0.790
  9232.512   316.720   335.866     0.567     0.121     2.202
 10370.352   268.820   338.421     0.236    -2.230     3.654
 11497.398   226.980   340.577     0.088    -4.580     4.301
 12606.404   190.820   343.554     0.035    -4.388     4.245
 13694.259   159.870   348.350     0.014    -2.436     2.668
 14765.384   133.550   357.043     0.008    -4.591     2.629
 15832.462   111.290   373.261     0.007    -4.617     4.264
 16906.398    92.560   393.175     0.008    -0.889     1.756
 257.125,  19,  1012.  day,levels,pres0
   181.975   991.250   297.897    17.053     2.038     2.012
   594.801   945.500   298.985    15.472     1.844     1.056
  1080.748   893.790   300.827    13.086     1.224     0.217
  1650.832   836.060   303.288    10.642    -0.203    -0.559
  2314.103   772.820   306.823     8.197    -2.564    -2.630
  3075.618   705.220   310.727     6.203    -4.556    -4.712
  3933.087   635.050   314.568     4.515    -4.110    -4.313
  4879.034   564.480   319.682     2.737    -0.616    -2.723
  5900.813   495.730   324.611     1.884     1.741    -0.786
  6979.756   430.710   328.867     1.309     1.934     0.602
  8095.671   370.780   332.416     0.922     0.794     1.031
  9229.945   316.720   335.466     0.535    -0.156     1.763
 10366.327   268.820   337.966     0.225    -2.934     2.557
 11492.326   226.980   340.411     0.087    -5.084     2.911
 12601.532   190.820   343.855     0.034    -3.943     3.023
 13689.998   159.870   348.432     0.014    -2.460     1.493
 14760.418   133.550   356.480     0.007    -4.640     2.371
 15825.843   111.290   372.693     0.007    -4.122     3.848
 16898.207    92.560   392.622     0.008    -1.182     0.424
 257.25,  19,  1012.  day,levels,pres0
   181.842   991.250   297.695    16.971     2.333     2.291
   594.348   945.500   298.754    15.385     2.199     1.869
  1079.840   893.790   300.507    13.099     2.118     1.174
  1649.276   836.060   302.893    10.781     1.137     0.290
  2311.803   772.820   306.476     8.369    -0.990    -1.546
  3072.805   705.220   310.578     6.467    -2.980    -3.125
  3930.357   635.050   314.687     4.743    -2.999    -2.616
  4876.900   564.480   319.895     2.868     0.007    -1.319
  5899.396   495.730   324.814     1.931     2.069     0.350
  6978.756   430.710   328.916     1.254     2.097     1.407
  8094.696   370.780   332.405     0.855     0.868     1.516
  9228.749   316.720   335.369     0.480    -0.683     1.610
 10364.887   268.820   337.934     0.209    -3.625     1.907
 11491.273   226.980   340.687     0.085    -5.363     2.008
 12601.727   190.820   344.354     0.035    -3.279     2.144
 13691.138   159.870   348.524     0.014    -2.026     1.118
 14760.877   133.550   355.923     0.007    -4.357     2.395
 15824.804   111.290   372.228     0.006    -3.573     3.228
 16896.574    92.560   392.677     0.008    -1.561    -0.415
 257.375,  19,  1012.  day,levels,pres0
   181.759   991.250   297.601    16.734     2.341     2.412
   594.087   945.500   298.676    15.145     2.650     2.427
  1079.348   893.790   300.358    13.024     2.806     1.807
  1648.553   836.060   302.796    10.863     1.829     0.636
  2310.768   772.820   306.262     8.408    -0.099    -1.016
  3071.372   705.220   310.418     6.710    -1.892    -2.091
  3929.028   635.050   314.814     5.105    -2.312    -1.410
  4876.359   564.480   320.158     3.229     0.038    -0.177
  5899.838   495.730   325.063     2.118     2.193     1.153
  6980.174   430.710   329.223     1.245     2.279     1.958
  8097.534   370.780   332.958     0.796     0.865     2.115
  9233.614   316.720   336.034     0.433    -1.319     1.804
 10372.131   268.820   338.692     0.200    -4.267     1.955
 11500.875   226.980   341.349     0.083    -5.716     1.948
 12613.178   190.820   344.829     0.035    -3.055     1.553
 13703.677   159.870   348.734     0.014    -1.732     1.008
 14773.727   133.550   355.912     0.007    -3.921     2.190
 15838.055   111.290   372.521     0.006    -3.085     2.234
 16911.088    92.560   393.293     0.008    -1.927    -1.028
 257.5,  19,  1012.  day,levels,pres0
   181.728   991.250   297.569    16.634     2.298     2.720
   593.955   945.500   298.609    14.984     2.884     2.885
  1079.097   893.790   300.309    13.011     3.023     2.367
  1648.315   836.060   302.827    11.060     2.034     0.993
  2310.538   772.820   306.132     8.785     0.397    -0.496
  3070.933   705.220   310.247     7.027    -0.900    -1.040
  3928.511   635.050   314.792     5.512    -1.303    -0.342
  4875.988   564.480   320.105     3.713     0.250     0.685
  5899.589   495.730   325.054     2.342     2.306     1.473
  6980.261   430.710   329.387     1.272     2.479     2.174
  8098.732   370.780   333.459     0.773     0.916     2.578
  9236.927   316.720   336.795     0.405    -1.812     2.272
 10378.100   268.820   339.515     0.190    -4.959     2.724
 11509.096   226.980   341.878     0.081    -6.104     2.807
 12622.350   190.820   344.875     0.034    -3.194     1.664
 13712.746   159.870   348.619     0.014    -1.963     1.144
 14783.254   133.550   356.343     0.007    -3.394     2.083
 15849.547   111.290   373.447     0.007    -2.595     1.497
 16924.852    92.560   393.981     0.008    -2.182    -1.454
 257.625,  19,  1012.  day,levels,pres0
   181.669   991.250   297.485    16.566     2.425     2.852
   593.746   945.500   298.516    14.828     2.857     3.172
  1078.774   893.790   300.293    12.997     2.793     2.947
  1647.984   836.060   302.807    11.226     1.964     1.608
  2310.180   772.820   306.030     9.141     0.662     0.144
  3070.505   705.220   310.172     7.313    -0.213    -0.156
  3928.031   635.050   314.715     5.831    -0.300     0.491
  4875.277   564.480   319.883     4.131     0.812     1.294
  5898.468   495.730   324.892     2.564     2.438     1.495
  6978.941   430.710   329.376     1.328     2.540     2.212
  8097.843   370.780   333.722     0.760     1.038     2.734
  9237.308   316.720   337.291     0.387    -1.887     2.633
 10380.241   268.820   340.068     0.186    -5.359     3.359
 11512.381   226.980   342.005     0.082    -6.518     3.764
 12625.081   190.820   344.392     0.034    -3.606     2.342
 13713.687   159.870   347.959     0.013    -2.405     1.581
 14783.783   133.550   356.759     0.008    -2.737     2.242
 15851.939   111.290   374.317     0.007    -1.774     1.125
 16928.688    92.560   394.121     0.008    -2.101    -1.613
 257.75,  19,  1012.  day,levels,pres0
   181.592   991.250   297.383    16.431     2.399     3.077
   593.529   945.500   298.486    14.577     2.594     3.625
  1078.506   893.790   300.321    12.916     2.310     3.531
  1647.766   836.060   302.820    11.377     1.644     2.210
  2310.052   772.820   306.034     9.336     0.734     0.710
  3070.486   705.220   310.194     7.461     0.172     0.655
  3928.030   635.050   314.641     6.013     0.424     1.154
  4874.841   564.480   319.574     4.406     1.330     1.554
  5897.218   495.730   324.600     2.739     2.424     1.385
  6977.099   430.710   329.265     1.396     2.589     2.177
  8096.027   370.780   333.833     0.792     1.064     2.649
  9236.081   316.720   337.521     0.397    -1.750     2.721
 10379.528   268.820   340.135     0.197    -5.284     3.520
 11511.407   226.980   341.770     0.085    -6.584     4.342
 12622.495   190.820   343.618     0.033    -4.005     3.116
 13708.549   159.870   347.108     0.013    -2.709     2.167
 14777.857   133.550   357.122     0.008    -1.978     2.552
 15847.014   111.290   374.637     0.007    -0.741     0.783
 16923.168    92.560   393.350     0.008    -1.849    -1.862
 257.875,  19,  1012.  day,levels,pres0
   181.515   991.250   297.260    16.410     1.623     3.640
   593.407   945.500   298.557    14.530     1.942     4.206
  1078.525   893.790   300.441    12.879     1.756     3.871
  1647.994   836.060   302.912    11.455     1.282     2.569
  2310.533   772.820   306.148     9.416     0.615     1.444
  3071.211   705.220   310.244     7.553     0.368     1.538
  3928.830   635.050   314.594     6.185     0.763     1.830
  4875.365   564.480   319.360     4.614     1.491     1.869
  5897.242   495.730   324.444     2.821     2.349     1.493
  6977.055   430.710   329.352     1.479     2.476     2.063
  8096.563   370.780   334.061     0.867     0.874     2.486
  9237.313   316.720   337.677     0.434    -1.557     2.775
 10380.696   268.820   339.923     0.203    -4.787     3.426
 11511.577   226.980   341.375     0.085    -6.353     4.511
 12621.014   190.820   342.988     0.032    -4.491     3.767
 13705.414   159.870   346.692     0.012    -3.100     2.673
 14775.121   133.550   357.830     0.008    -1.372     2.772
 15844.785   111.290   374.247     0.007     0.003     0.480
 16918.516    92.560   391.984     0.007    -1.633    -2.066
 258.,  19,  1012.  day,levels,pres0
   181.414   991.250   297.068    16.561     0.782     4.783
   593.107   945.500   298.396    14.739     1.310     4.894
  1078.096   893.790   300.389    12.963     1.382     4.095
  1647.576   836.060   302.960    11.469     0.985     2.882
  2310.315   772.820   306.267     9.493     0.459     2.390
  3071.232   705.220   310.275     7.705     0.402     2.448
  3928.882   635.050   314.516     6.398     0.674     2.398
  4875.313   564.480   319.293     4.799     1.179     2.284
  5897.192   495.730   324.454     2.937     2.061     1.653
  6977.327   430.710   329.487     1.624     2.002     1.873
  8097.422   370.780   334.219     0.992     0.489     2.366
  9238.564   316.720   337.711     0.489    -1.383     2.849
 10381.742   268.820   339.749     0.212    -4.196     3.445
 11511.980   226.980   341.159     0.085    -6.131     4.270
 12620.616   190.820   342.709     0.031    -5.011     4.179
 13704.572   159.870   346.696     0.012    -3.627     3.121
 14775.678   133.550   358.771     0.008    -1.014     2.765
 15845.836   111.290   373.603     0.007     0.593     0.154
 16916.934    92.560   390.734     0.007    -1.351    -2.154
 258.125,  19,  1012.  day,levels,pres0
   181.309   991.250   296.903    16.516     0.683     5.967
   592.698   945.500   298.133    14.727     1.115     5.689
  1077.270   893.790   300.146    12.928     1.311     4.575
  1646.425   836.060   302.889    11.349     0.934     3.342
  2309.075   772.820   306.287     9.457     0.601     3.098
  3069.980   705.220   310.235     7.790     0.474     3.144
  3927.431   635.050   314.395     6.391     0.385     2.795
  4873.574   564.480   319.219     4.814     0.467     2.476
  5895.328   495.730   324.424     3.055     1.220     1.217
  6975.453   430.710   329.458     1.777     1.112     1.298
  8095.290   370.780   334.042     1.085    -0.219     2.109
  9235.771   316.720   337.469     0.532    -1.430     2.787
 10378.018   268.820   339.426     0.219    -3.883     3.285
 11507.137   226.980   340.806     0.084    -6.035     3.755
 12614.636   190.820   342.361     0.031    -5.510     3.982
 13697.776   159.870   346.530     0.012    -4.066     3.260
 14769.045   133.550   359.056     0.008    -0.715     2.558
 15838.623   111.290   372.895     0.007     1.197    -0.373
 16907.779    92.560   390.059     0.007    -0.963    -2.460
 258.25,  19,  1012.  day,levels,pres0
   181.350   991.250   296.993    16.395     0.958     6.693
   592.793   945.500   298.149    14.678     1.320     6.447
  1077.302   893.790   300.069    12.887     1.435     5.521
  1646.376   836.060   302.900    11.279     0.986     4.338
  2309.119   772.820   306.391     9.370     0.683     3.782
  3070.192   705.220   310.291     7.749     0.361     3.637
  3927.661   635.050   314.372     6.312    -0.044     3.240
  4873.740   564.480   319.226     4.759    -0.451     2.397
  5895.485   495.730   324.416     3.086    -0.003     0.514
  6975.654   430.710   329.478     1.820    -0.161     0.600
  8095.183   370.780   333.827     1.080    -1.197     1.885
  9234.842   316.720   337.201     0.530    -1.818     2.685
 10376.297   268.820   339.229     0.214    -3.972     3.020
 11504.990   226.980   340.751     0.082    -6.553     3.115
 12612.541   190.820   342.453     0.030    -6.530     3.275
 13696.142   159.870   346.734     0.012    -4.473     2.920
 14768.374   133.550   359.493     0.007    -0.402     2.219
 15838.271   111.290   372.660     0.006     1.824    -1.016
 16906.900    92.560   389.922     0.006    -0.904    -3.026
 258.375,  19,  1012.  day,levels,pres0
   181.500   991.250   297.239    16.389     0.980     7.232
   593.267   945.500   298.368    14.710     1.623     7.376
  1078.031   893.790   300.155    12.896     1.780     6.787
  1647.321   836.060   303.046    11.252     1.300     5.889
  2310.456   772.820   306.631     9.258     0.779     4.811
  3072.008   705.220   310.470     7.691     0.174     4.215
  3929.849   635.050   314.479     6.291    -0.632     3.534
  4876.233   564.480   319.328     4.756    -1.484     2.130
  5898.339   495.730   324.544     3.082    -1.253     0.130
  6979.181   430.710   329.762     1.819    -1.503     0.359
  8099.577   370.780   334.067     1.027    -2.064     1.776
  9240.092   316.720   337.488     0.474    -2.409     2.244
 10382.865   268.820   339.744     0.194    -4.536     2.286
 11513.375   226.980   341.338     0.077    -7.672     2.353
 12623.065   190.820   343.190     0.030    -7.694     2.344
 13709.429   159.870   347.761     0.012    -4.705     2.117
 14784.505   133.550   360.333     0.007    -0.087     1.619
 15856.134   111.290   372.990     0.007     2.141    -1.598
 16925.994    92.560   390.475     0.007    -1.099    -3.365
 258.5,  19,  1012.  day,levels,pres0
   181.696   991.250   297.555    16.420     0.797     7.788
   593.814   945.500   298.549    14.736     1.726     8.102
  1078.786   893.790   300.233    12.857     1.983     7.827
  1648.167   836.060   303.086    11.176     1.408     7.056
  2311.405   772.820   306.711     9.202     0.746     5.658
  3073.117   705.220   310.531     7.683    -0.149     4.745
  3930.994   635.050   314.447     6.276    -1.390     3.645
  4877.244   564.480   319.276     4.741    -2.403     1.841
  5899.385   495.730   324.618     3.107    -2.257    -0.040
  6980.891   430.710   330.088     1.829    -2.501     0.233
  8102.662   370.780   334.565     0.982    -2.578     1.168
  9245.115   316.720   338.156     0.413    -2.898     1.054
 10390.223   268.820   340.478     0.170    -5.406     0.866
 11523.135   226.980   342.056     0.073    -8.581     1.165
 12635.167   190.820   343.918     0.028    -8.229     1.368
 13724.098   159.870   348.671     0.012    -4.333     1.108
 14800.772   133.550   360.455     0.007     0.549     0.807
 15872.706   111.290   373.076     0.006     2.263    -2.209
 16943.357    92.560   390.965     0.007    -1.258    -3.519
 258.625,  19,  1012.  day,levels,pres0
   181.893   991.250   297.853    16.552     0.305     7.645
   594.325   945.500   298.666    14.818     1.135     7.922
  1079.465   893.790   300.316    12.813     1.509     7.872
  1648.933   836.060   303.149    10.926     0.927     7.303
  2312.190   772.820   306.745     9.023     0.274     5.871
  3073.888   705.220   310.517     7.699    -0.654     4.771
  3931.574   635.050   314.322     6.251    -2.214     3.556
  4877.428   564.480   319.147     4.706    -3.114     1.585
  5899.387   495.730   324.640     3.118    -3.072    -0.378
  6981.292   430.710   330.308     1.838    -3.176    -0.399
  8104.147   370.780   334.992     0.980    -3.048    -0.108
  9248.096   316.720   338.617     0.387    -3.554    -0.626
 10394.561   268.820   340.830     0.147    -6.188    -0.815
 11528.739   226.980   342.475     0.067    -8.826    -0.003
 12641.883   190.820   344.182     0.027    -7.943     0.405
 13731.289   159.870   348.703     0.011    -3.575    -0.170
 14806.602   133.550   359.501     0.007     1.232    -0.392
 15876.061   111.290   372.344     0.006     2.031    -2.921
 16945.279    92.560   390.687     0.007    -1.758    -3.585
 258.75,  19,  1012.  day,levels,pres0
   181.946   991.250   297.913    16.704    -0.512     6.981
   594.483   945.500   298.713    14.908     0.036     7.084
  1079.693   893.790   300.342    12.790     0.503     6.794
  1649.086   836.060   303.075    10.767     0.154     6.402
  2312.151   772.820   306.695     8.899    -0.452     5.409
  3073.692   705.220   310.443     7.804    -1.407     4.379
  3931.194   635.050   314.230     6.314    -2.974     3.383
  4876.860   564.480   319.094     4.749    -3.790     1.299
  5898.663   495.730   324.583     3.139    -3.887    -0.886
  6980.485   430.710   330.312     1.836    -3.749    -1.245
  8103.309   370.780   334.965     0.997    -3.536    -1.394
  9247.027   316.720   338.503     0.382    -4.287    -2.096
 10393.109   268.820   340.720     0.132    -6.730    -2.148
 11527.037   226.980   342.440     0.064    -8.724    -0.652
 12639.965   190.820   344.084     0.025    -7.384    -0.080
 13728.408   159.870   348.179     0.011    -3.255    -1.238
 14801.003   133.550   358.216     0.006     1.118    -1.535
 15867.130   111.290   371.357     0.005     1.118    -3.355
 16933.822    92.560   389.876     0.006    -2.500    -3.449
 258.875,  19,  1012.  day,levels,pres0
   181.893   991.250   297.825    16.712    -1.362     6.001
   594.365   945.500   298.693    14.975    -0.632     5.988
  1079.544   893.790   300.319    12.752    -0.076     5.334
  1648.839   836.060   303.017    10.674    -0.381     5.042
  2311.798   772.820   306.685     8.838    -1.058     4.580
  3073.256   705.220   310.394     7.817    -2.438     3.720
  3930.556   635.050   314.125     6.327    -4.092     2.903
  4875.974   564.480   319.028     4.753    -4.822     0.866
  5897.405   495.730   324.414     3.124    -4.793    -1.272
  6978.499   430.710   330.044     1.817    -4.481    -1.899
  8100.326   370.780   334.649     0.975    -4.206    -2.468
  9242.842   316.720   338.118     0.364    -5.071    -3.237
 10387.547   268.820   340.294     0.126    -7.186    -3.099
 11520.088   226.980   342.032     0.063    -8.560    -1.352
 12631.919   190.820   343.820     0.025    -6.859    -0.540
 13719.059   159.870   347.607     0.011    -3.415    -1.839
 14789.313   133.550   357.238     0.006     0.182    -2.358
 15852.888   111.290   370.596     0.005    -0.171    -3.514
 16917.188    92.560   388.927     0.006    -3.018    -3.242
 259.,  19,  1012.  day,levels,pres0
   181.853   991.250   297.772    16.646    -1.566     5.065
   594.243   945.500   298.628    15.040    -0.645     5.025
  1079.376   893.790   300.318    12.745     0.032     4.188
  1648.750   836.060   303.129    10.549    -0.370     3.821
  2311.940   772.820   306.839     8.674    -1.376     3.507
  3073.479   705.220   310.356     7.698    -3.279     2.802
  3930.466   635.050   313.969     6.264    -5.114     1.979
  4875.416   564.480   318.897     4.691    -5.861     0.205
  5896.399   495.730   324.303     2.987    -5.857    -1.457
  6976.847   430.710   329.801     1.758    -5.576    -2.312
  8097.622   370.780   334.284     0.950    -5.172    -3.281
  9238.598   316.720   337.578     0.364    -6.040    -4.126
 10381.258   268.820   339.617     0.135    -7.981    -3.899
 11512.006   226.980   341.634     0.062    -8.799    -2.208
 12623.008   190.820   343.713     0.025    -6.809    -1.054
 13709.703   159.870   347.429     0.011    -3.866    -2.261
 14778.982   133.550   356.766     0.006    -0.943    -3.064
 15841.037   111.290   370.026     0.004    -1.178    -3.802
 16903.422    92.560   388.125     0.005    -3.166    -3.185
 259.125,  19,  1012.  day,levels,pres0
   181.901   991.250   297.849    16.647    -1.046     4.402
   594.341   945.500   298.617    15.074    -0.272     4.408
  1079.541   893.790   300.395    12.803     0.381     3.364
  1649.226   836.060   303.404    10.368    -0.166     2.667
  2312.946   772.820   307.133     8.415    -1.731     2.233
  3074.788   705.220   310.395     7.474    -4.195     1.579
  3931.534   635.050   313.811     6.174    -6.162     0.702
  4875.865   564.480   318.682     4.551    -7.059    -0.774
  5896.409   495.730   324.314     2.771    -7.143    -1.822
  6976.732   430.710   329.783     1.628    -7.008    -2.693
  8097.114   370.780   334.109     0.861    -6.523    -3.951
  9237.170   316.720   337.231     0.334    -7.237    -4.872
 10378.560   268.820   339.215     0.142    -9.175    -4.462
 11508.634   226.980   341.639     0.064    -9.625    -2.916
 12620.094   190.820   343.998     0.026    -7.145    -1.430
 13707.731   159.870   347.744     0.011    -4.289    -2.427
 14777.386   133.550   356.688     0.006    -1.750    -3.512
 15838.980   111.290   369.785     0.004    -1.727    -3.984
 16900.650    92.560   387.855     0.005    -3.386    -3.193
 259.25,  19,  1012.  day,levels,pres0
   182.007   991.250   298.022    16.652    -0.429     4.084
   594.615   945.500   298.695    15.020     0.018     4.020
  1079.986   893.790   300.543    12.783     0.391     2.622
  1649.969   836.060   303.621    10.133    -0.254     1.678
  2314.052   772.820   307.363     8.037    -2.298     0.909
  3076.168   705.220   310.498     7.253    -5.359     0.135
  3932.831   635.050   313.703     6.082    -7.398    -0.819
  4876.631   564.480   318.479     4.405    -8.090    -1.991
  5896.770   495.730   324.324     2.616    -8.105    -2.358
  6977.248   430.710   329.942     1.418    -8.269    -3.156
  8098.118   370.780   334.310     0.729    -7.908    -4.725
  9238.436   316.720   337.213     0.303    -8.455    -5.584
 10379.677   268.820   339.150     0.146   -10.607    -4.832
 11509.989   226.980   341.852     0.066   -10.761    -3.074
 12622.526   190.820   344.454     0.026    -7.495    -1.457
 13711.773   159.870   348.314     0.011    -4.361    -2.627
 14782.839   133.550   357.041     0.006    -2.238    -3.783
 15845.523   111.290   370.178     0.004    -2.107    -3.963
 16908.609    92.560   388.478     0.005    -3.887    -3.243
 259.375,  19,  1012.  day,levels,pres0
   182.125   991.250   298.226    16.591    -0.183     3.816
   594.964   945.500   298.846    14.963    -0.137     3.801
  1080.584   893.790   300.733    12.661    -0.038     2.167
  1650.769   836.060   303.729     9.784    -0.733     0.848
  2314.872   772.820   307.432     7.533    -2.926    -0.311
  3077.115   705.220   310.670     7.030    -6.072    -1.424
  3934.108   635.050   313.837     5.958    -8.067    -2.262
  4878.157   564.480   318.547     4.345    -8.849    -3.101
  5898.590   495.730   324.466     2.563    -8.793    -2.853
  6979.770   430.710   330.274     1.243    -9.004    -3.416
  8101.671   370.780   334.649     0.609    -9.001    -5.405
  9242.684   316.720   337.310     0.271    -9.744    -6.191
 10384.351   268.820   339.315     0.138   -11.942    -4.995
 11515.537   226.980   342.220     0.065   -11.926    -2.704
 12629.400   190.820   344.906     0.026    -7.815    -1.312
 13720.180   159.870   348.838     0.011    -4.313    -2.981
 14792.884   133.550   357.597     0.006    -2.542    -3.983
 15857.763   111.290   371.134     0.005    -2.698    -3.881
 16923.871    92.560   389.685     0.005    -4.689    -3.073
 259.5,  19,  1012.  day,levels,pres0
   182.240   991.250   298.431    16.504    -0.290     3.587
   595.300   945.500   298.991    14.875    -0.442     3.762
  1081.170   893.790   300.957    12.412    -0.477     1.721
  1651.611   836.060   303.936     9.156    -1.467    -0.172
  2315.737   772.820   307.431     7.149    -3.689    -1.601
  3077.926   705.220   310.709     6.978    -6.671    -2.881
  3935.215   635.050   314.035     5.913    -8.414    -3.503
  4879.790   564.480   318.714     4.323    -9.420    -3.739
  5900.685   495.730   324.592     2.570    -9.392    -2.994
  6982.285   430.710   330.416     1.170    -9.190    -3.330
  8104.563   370.780   334.757     0.549    -9.421    -5.599
  9246.031   316.720   337.486     0.257   -10.560    -6.283
 10388.575   268.820   339.667     0.130   -12.767    -4.796
 11520.832   226.980   342.514     0.062   -12.708    -2.409
 12635.503   190.820   345.108     0.026    -8.124    -1.240
 13726.835   159.870   348.986     0.011    -4.366    -3.436
 14799.869   133.550   357.664     0.006    -2.760    -4.254
 15865.404   111.290   371.523     0.005    -3.201    -3.714
 16932.813    92.560   390.226     0.006    -5.376    -2.661
 259.625,  19,  1012.  day,levels,pres0
   182.297   991.250   298.513    16.564    -0.272     3.395
   595.437   945.500   298.997    14.966    -0.359     3.373
  1081.403   893.790   301.053    12.407    -0.456     0.805
  1652.049   836.060   304.108     8.890    -1.745    -1.500
  2316.211   772.820   307.320     7.251    -4.336    -2.716
  3078.058   705.220   310.482     7.194    -7.434    -3.713
  3935.309   635.050   314.174     6.041    -9.014    -4.255
  4880.671   564.480   319.067     4.390    -9.935    -3.966
  5902.512   495.730   324.802     2.664    -9.599    -2.755
  6984.489   430.710   330.400     1.227    -8.917    -2.851
  8106.664   370.780   334.691     0.587    -9.227    -5.386
  9248.261   316.720   337.620     0.283   -10.753    -5.943
 10391.633   268.820   340.023     0.131   -13.368    -4.307
 11524.986   226.980   342.818     0.059   -13.106    -2.170
 12640.460   190.820   345.298     0.025    -8.399    -1.300
 13732.181   159.870   349.040     0.011    -4.918    -3.424
 14804.902   133.550   357.396     0.006    -3.276    -4.336
 15869.060   111.290   370.838     0.005    -3.249    -3.468
 16934.998    92.560   389.871     0.005    -5.417    -2.270
 259.75,  19,  1012.  day,levels,pres0
   182.334   991.250   298.544    16.728     0.207     2.971
   595.497   945.500   298.932    15.179     0.290     2.443
  1081.387   893.790   300.922    12.754    -0.023    -0.286
  1651.938   836.060   303.988     9.359    -1.488    -2.487
  2315.886   772.820   307.026     7.940    -4.630    -3.601
  3077.204   705.220   310.153     7.537    -7.983    -4.251
  3934.205   635.050   314.226     6.229    -9.586    -4.749
  4880.185   564.480   319.365     4.559   -10.174    -4.018
  5902.843   495.730   324.945     2.849    -9.520    -2.424
  6985.006   430.710   330.294     1.396    -8.523    -2.334
  8106.737   370.780   334.476     0.694    -8.900    -4.810
  9247.780   316.720   337.475     0.344   -10.527    -5.144
 10391.105   268.820   340.130     0.149   -13.346    -3.713
 11525.027   226.980   343.052     0.061   -13.158    -1.787
 12641.002   190.820   345.368     0.025    -9.378    -0.864
 13732.479   159.870   348.807     0.011    -6.332    -2.803
 14803.778   133.550   356.681     0.006    -4.118    -3.901
 15865.305   111.290   369.745     0.004    -3.268    -3.090
 16929.330    92.560   389.624     0.005    -5.172    -2.134
 259.875,  19,  1012.  day,levels,pres0
   182.291   991.250   298.443    16.896     0.954     2.240
   595.367   945.500   298.842    15.369     1.012     1.278
  1081.053   893.790   300.661    13.110     0.528    -1.196
  1651.107   836.060   303.516    10.127    -1.154    -3.156
  2314.313   772.820   306.523     8.748    -4.879    -4.343
  3074.955   705.220   309.893     7.890    -8.763    -4.735
  3931.784   635.050   314.270     6.380   -10.276    -4.994
  4878.044   564.480   319.450     4.717   -10.105    -3.822
  5900.818   495.730   324.867     3.013    -9.225    -1.927
  6982.516   430.710   330.024     1.542    -8.219    -1.280
  8103.273   370.780   334.115     0.804    -8.638    -3.195
  9243.141   316.720   337.110     0.403   -10.238    -3.901
 10385.496   268.820   339.907     0.173   -12.776    -3.072
 11518.828   226.980   342.916     0.068   -13.052    -1.685
 12634.205   190.820   345.132     0.026   -10.836    -0.578
 13724.214   159.870   348.098     0.011    -8.019    -1.847
 14792.570   133.550   355.438     0.006    -4.740    -2.852
 15850.854   111.290   368.776     0.004    -3.099    -2.528
 16913.785    92.560   389.842     0.005    -4.872    -1.932
 260.,  19,  1012.  day,levels,pres0
   182.187   991.250   298.258    16.982     1.829     1.610
   595.066   945.500   298.713    15.443     1.762     0.518
  1080.466   893.790   300.387    13.302     1.089    -1.860
  1649.884   836.060   302.986    10.632    -0.877    -3.789
  2312.145   772.820   306.039     9.033    -5.047    -5.030
  3072.087   705.220   309.741     8.000    -9.240    -5.221
  3928.833   635.050   314.329     6.458   -10.469    -4.870
  4875.226   564.480   319.443     4.825    -9.720    -3.325
  5897.850   495.730   324.743     3.080    -8.621    -1.089
  6978.944   430.710   329.753     1.611    -7.553     0.221
  8098.846   370.780   333.852     0.871    -8.008    -1.044
  9238.065   316.720   336.973     0.440    -9.596    -2.698
 10379.967   268.820   339.763     0.189   -12.150    -2.862
 11512.430   226.980   342.525     0.075   -13.000    -1.834
 12626.473   190.820   344.698     0.028   -11.927    -0.243
 13714.705   159.870   347.395     0.011    -8.965    -0.392
 14780.289   133.550   354.305     0.006    -4.723    -1.467
 15835.998   111.290   368.161     0.004    -2.716    -1.969
 16898.326    92.560   390.048     0.005    -4.696    -1.785
 260.125,  19,  1012.  day,levels,pres0
   182.026   991.250   297.981    17.060     2.877     1.396
   594.619   945.500   298.562    15.445     2.839     0.241
  1079.729   893.790   300.177    13.320     1.759    -2.526
  1648.678   836.060   302.657    10.841    -0.690    -4.662
  2310.344   772.820   305.764     9.136    -5.138    -5.812
  3069.942   705.220   309.739     7.911    -9.090    -5.631
  3926.708   635.050   314.359     6.481   -10.278    -4.598
  4872.962   564.480   319.305     4.865    -9.113    -2.562
  5894.987   495.730   324.491     3.092    -7.641    -0.126
  6974.919   430.710   329.282     1.672    -6.419     1.455
  8093.345   370.780   333.425     0.926    -6.674     0.421
  9231.405   316.720   336.703     0.467    -8.204    -1.651
 10372.363   268.820   339.464     0.206   -10.692    -2.475
 11503.424   226.980   341.968     0.082   -12.213    -1.686
 12615.742   190.820   344.190     0.030   -12.253     0.235
 13702.325   159.870   346.854     0.012    -8.990     0.889
 14766.004   133.550   353.587     0.005    -4.073    -0.301
 15820.502   111.290   368.068     0.004    -2.345    -1.511
 16883.400    92.560   390.565     0.006    -4.769    -1.664
 260.25,  19,  1012.  day,levels,pres0
   181.820   991.250   297.664    16.943     3.765     1.165
   594.086   945.500   298.451    15.332     3.824    -0.197
  1079.003   893.790   300.085    13.244     2.179    -3.160
  1647.820   836.060   302.597    10.979    -0.587    -5.418
  2309.442   772.820   305.736     9.257    -4.937    -6.311
  3069.035   705.220   309.760     7.802    -8.648    -5.797
  3925.782   635.050   314.356     6.417    -9.533    -4.336
  4871.803   564.480   319.170     4.815    -8.062    -2.017
  5893.178   495.730   324.242     3.002    -6.413     0.215
  6972.127   430.710   328.958     1.646    -5.182     1.432
  8089.549   370.780   333.161     0.932    -5.141     0.571
  9226.896   316.720   336.548     0.471    -6.724    -1.251
 10367.190   268.820   339.222     0.209    -9.065    -1.928
 11497.130   226.980   341.529     0.084   -11.087    -1.319
 12608.354   190.820   343.957     0.031   -12.452     0.795
 13694.613   159.870   346.886     0.012    -9.140     1.721
 14758.555   133.550   353.731     0.006    -3.804     0.149
 15814.170   111.290   368.700     0.004    -2.067    -1.397
 16879.270    92.560   391.511     0.006    -4.902    -1.596
 260.375,  19,  1012.  day,levels,pres0
   181.674   991.250   297.468    16.701     3.918     0.897
   593.746   945.500   298.452    15.111     3.927    -0.599
  1078.647   893.790   300.122    13.140     1.980    -3.308
  1647.562   836.060   302.656    11.134    -0.763    -5.592
  2309.347   772.820   305.789     9.311    -4.658    -6.132
  3069.079   705.220   309.820     7.742    -7.783    -5.513
  3925.939   635.050   314.398     6.372    -8.252    -3.881
  4872.158   564.480   319.273     4.810    -6.473    -1.120
  5893.764   495.730   324.303     2.910    -5.110     0.306
  6972.898   430.710   329.041     1.579    -4.248     0.720
  8090.660   370.780   333.294     0.931    -4.288    -0.042
  9228.699   316.720   336.828     0.467    -5.595    -1.226
 10369.841   268.820   339.447     0.199    -7.615    -1.512
 11500.178   226.980   341.541     0.082   -10.165    -0.733
 12611.639   190.820   344.095     0.031   -12.093     1.563
 13699.063   159.870   347.501     0.012    -8.776     2.320
 14765.424   133.550   354.717     0.006    -3.530     0.021
 15824.143   111.290   369.841     0.005    -1.965    -1.654
 16892.262    92.560   392.519     0.007    -5.014    -1.564
 260.5,  19,  1012.  day,levels,pres0
   181.685   991.250   297.500    16.627     4.106     0.907
   593.856   945.500   298.598    14.984     3.737    -0.424
  1079.000   893.790   300.314    13.059     1.923    -2.905
  1648.217   836.060   302.789    11.185    -0.592    -5.120
  2310.296   772.820   305.911     9.332    -4.116    -5.178
  3070.468   705.220   310.046     7.778    -6.752    -4.561
  3927.856   635.050   314.563     6.298    -6.748    -3.119
  4874.473   564.480   319.401     4.740    -4.828    -0.289
  5896.461   495.730   324.451     2.800    -4.121     0.502
  6976.188   430.710   329.284     1.534    -3.719     0.104
  8094.848   370.780   333.589     0.949    -3.944    -0.486
  9234.037   316.720   337.208     0.464    -4.831    -1.143
 10376.393   268.820   339.787     0.188    -6.688    -1.046
 11507.475   226.980   341.647     0.077    -9.585     0.025
 12619.047   190.820   344.056     0.030   -11.194     1.787
 13706.784   159.870   347.747     0.011    -7.826     2.366
 14774.275   133.550   355.223     0.006    -3.055    -0.444
 15834.459   111.290   370.337     0.005    -1.962    -2.209
 16903.408    92.560   392.605     0.007    -5.001    -1.444
 260.625,  19,  1012.  day,levels,pres0
   181.733   991.250   297.560    16.731     4.691     1.125
   594.043   945.500   298.711    15.040     4.130    -0.094
  1079.388   893.790   300.431    13.113     2.519    -2.237
  1648.823   836.060   302.875    11.284     0.197    -4.091
  2311.217   772.820   306.075     9.458    -3.189    -3.628
  3071.900   705.220   310.255     7.878    -5.658    -3.030
  3929.817   635.050   314.723     6.284    -5.547    -2.053
  4876.749   564.480   319.475     4.625    -3.770     0.326
  5898.857   495.730   324.486     2.739    -3.494     0.600
  6978.713   430.710   329.342     1.526    -3.461    -0.175
  8097.716   370.780   333.732     0.980    -3.755    -0.454
  9237.540   316.720   337.430     0.485    -4.429    -0.953
 10380.999   268.820   340.220     0.188    -6.394    -0.764
 11513.390   226.980   342.001     0.074    -9.222     0.368
 12625.618   190.820   344.100     0.029   -10.284     1.400
 13713.321   159.870   347.678     0.011    -6.749     1.757
 14780.601   133.550   355.152     0.006    -2.488    -1.178
 15840.259   111.290   370.042     0.005    -1.811    -2.851
 16908.006    92.560   392.035     0.007    -4.683    -1.084
 260.75,  19,  1012.  day,levels,pres0
   181.682   991.250   297.452    16.862     4.793     1.478
   593.906   945.500   298.654    15.141     4.482     0.206
  1079.202   893.790   300.380    13.266     3.121    -1.488
  1648.622   836.060   302.845    11.489     0.890    -2.874
  2311.099   772.820   306.100     9.698    -2.255    -2.028
  3071.820   705.220   310.188     8.018    -4.633    -1.466
  3929.677   635.050   314.709     6.338    -4.500    -0.904
  4876.704   564.480   319.543     4.629    -2.898     0.757
  5898.917   495.730   324.479     2.757    -2.852     0.569
  6978.712   430.710   329.307     1.535    -3.161    -0.212
  8097.656   370.780   333.732     0.971    -3.447    -0.308
  9237.368   316.720   337.361     0.502    -4.105    -0.556
 10380.855   268.820   340.304     0.197    -5.875    -0.558
 11513.597   226.980   342.127     0.076    -8.342     0.179
 12625.985   190.820   344.068     0.030    -9.009     0.566
 13713.303   159.870   347.461     0.011    -5.581     0.671
 14779.810   133.550   354.859     0.006    -1.848    -2.182
 15838.352   111.290   369.567     0.005    -1.565    -3.689
 16904.818    92.560   391.599     0.007    -4.441    -0.982
 260.875,  19,  1012.  day,levels,pres0
   181.585   991.250   297.283    16.919     4.138     2.145
   593.609   945.500   298.510    15.212     4.402     0.735
  1078.696   893.790   300.235    13.368     3.289    -0.773
  1647.940   836.060   302.754    11.657     1.240    -1.459
  2310.317   772.820   306.035     9.874    -1.491    -0.626
  3070.806   705.220   310.017     8.091    -3.568    -0.182
  3928.221   635.050   314.528     6.421    -3.444     0.101
  4874.837   564.480   319.409     4.754    -1.839     1.009
  5896.694   495.730   324.354     2.807    -2.103     0.658
  6976.274   430.710   329.294     1.527    -2.959     0.159
  8095.405   370.780   333.863     0.960    -3.153     0.024
  9235.242   316.720   337.301     0.503    -3.645    -0.205
 10378.188   268.820   340.035     0.210    -5.057    -0.615
 11510.141   226.980   341.919     0.082    -6.931    -0.697
 12621.932   190.820   343.907     0.031    -7.170    -0.963
 13708.538   159.870   347.165     0.012    -3.967    -1.134
 14773.975   133.550   354.447     0.006    -1.006    -3.476
 15831.265   111.290   369.122     0.005    -1.692    -4.231
 16897.008    92.560   391.537     0.007    -4.565    -0.813
 261.,  19,  1012.  day,levels,pres0
   181.548   991.250   297.213    16.970     3.569     3.270
   593.437   945.500   298.370    15.246     4.138     1.846
  1078.304   893.790   300.090    13.411     3.109     0.339
  1647.340   836.060   302.661    11.714     1.291     0.033
  2309.606   772.820   306.015     9.882    -0.924     0.640
  3069.995   705.220   309.969     8.011    -2.564     0.788
  3927.079   635.050   314.348     6.422    -2.284     0.863
  4873.031   564.480   319.134     4.801    -0.883     1.356
  5894.314   495.730   324.255     2.840    -1.467     1.202
  6973.799   430.710   329.324     1.569    -2.762     1.015
  8093.160   370.780   333.954     1.004    -3.025     0.194
  9233.404   316.720   337.438     0.523    -3.040    -0.516
 10376.357   268.820   339.889     0.224    -4.100    -1.318
 11507.597   226.980   341.627     0.087    -5.365    -2.143
 12618.500   190.820   343.652     0.032    -4.797    -2.920
 13704.204   159.870   346.845     0.012    -2.205    -3.296
 14768.466   133.550   353.990     0.006    -0.581    -4.549
 15824.577   111.290   368.776     0.005    -2.306    -4.110
 16890.125    92.560   391.758     0.007    -4.602    -0.315
 261.125,  19,  1012.  day,levels,pres0
   181.504   991.250   297.143    16.964     3.705     4.115
   593.261   945.500   298.246    15.263     4.046     3.098
  1077.992   893.790   300.041    13.420     3.023     1.868
  1647.021   836.060   302.712    11.664     1.652     1.687
  2309.451   772.820   306.142     9.792    -0.149     1.957
  3070.054   705.220   310.053     7.897    -1.386     1.747
  3927.000   635.050   314.191     6.373    -1.177     1.401
  4872.279   564.480   318.866     4.711    -0.273     1.557
  5892.857   495.730   324.114     2.766    -1.079     1.968
  6972.005   430.710   329.279     1.562    -2.797     1.938
  8091.225   370.780   333.914     1.020    -2.967     0.485
  9231.552   316.720   337.523     0.540    -2.632    -1.168
 10374.635   268.820   339.874     0.230    -3.346    -2.198
 11505.615   226.980   341.482     0.087    -4.016    -3.415
 12615.744   190.820   343.314     0.032    -3.002    -4.465
 13700.361   159.870   346.491     0.012    -1.641    -4.803
 14763.539   133.550   353.630     0.006    -1.515    -4.982
 15818.740   111.290   368.516     0.004    -3.387    -3.245
 16884.393    92.560   392.109     0.007    -4.220     0.637
 261.25,  19,  1012.  day,levels,pres0
   181.544   991.250   297.226    16.863     3.969     4.180
   593.314   945.500   298.212    15.191     4.405     3.736
  1077.986   893.790   300.029    13.348     3.531     3.003
  1647.062   836.060   302.801    11.586     2.401     2.917
  2309.785   772.820   306.356     9.695     0.717     3.148
  3070.791   705.220   310.199     7.799    -0.407     2.954
  3927.741   635.050   314.078     6.293    -0.503     2.028
  4872.490   564.480   318.672     4.534    -0.029     1.733
  5892.538   495.730   324.031     2.664    -1.044     2.504
  6971.664   430.710   329.384     1.509    -3.248     2.735
  8091.117   370.780   333.963     0.985    -3.532     1.158
  9231.574   316.720   337.558     0.537    -3.008    -1.438
 10375.005   268.820   340.049     0.227    -2.997    -2.756
 11506.760   226.980   341.777     0.085    -2.992    -3.784
 12617.547   190.820   343.421     0.031    -2.499    -4.872
 13702.353   159.870   346.502     0.012    -2.775    -5.082
 14765.564   133.550   353.642     0.006    -3.621    -4.407
 15821.279   111.290   368.864     0.004    -4.643    -1.695
 16888.049    92.560   392.561     0.007    -3.598     1.776
 261.375,  19,  1012.  day,levels,pres0
   181.695   991.250   297.488    16.778     4.050     3.956
   593.742   945.500   298.389    15.065     4.810     3.684
  1078.668   893.790   300.195    13.309     4.236     3.308
  1648.112   836.060   303.022    11.647     3.010     3.225
  2311.477   772.820   306.711     9.713     1.506     3.844
  3073.220   705.220   310.438     7.797     0.220     3.978
  3930.597   635.050   314.160     6.228    -0.478     2.957
  4875.496   564.480   318.732     4.375    -0.217     2.304
  5895.775   495.730   324.155     2.634    -1.096     2.885
  6975.657   430.710   329.735     1.474    -3.622     3.351
  8096.129   370.780   334.232     0.931    -4.576     2.549
  9237.445   316.720   337.808     0.522    -4.001    -0.487
 10382.160   268.820   340.571     0.219    -3.140    -2.737
 11516.099   226.980   342.580     0.082    -2.819    -3.706
 12629.319   190.820   344.117     0.031    -3.381    -4.513
 13716.002   159.870   346.994     0.012    -4.989    -4.139
 14780.664   133.550   354.104     0.006    -6.021    -2.675
 15838.557   111.290   369.907     0.005    -5.603     0.477
 16907.563    92.560   393.099     0.007    -3.237     2.767
 261.5,  19,  1012.  day,levels,pres0
   181.828   991.250   297.691    16.866     3.835     3.575
   594.206   945.500   298.638    15.116     4.780     3.255
  1079.602   893.790   300.508    13.364     4.585     2.860
  1649.649   836.060   303.318    11.749     3.475     2.781
  2313.639   772.820   306.950     9.822     2.263     3.952
  3075.879   705.220   310.592     7.733     0.680     4.618
  3933.649   635.050   314.322     6.135    -0.571     3.743
  4879.039   564.480   318.934     4.293    -0.461     3.072
  5899.985   495.730   324.400     2.585    -1.097     3.312
  6980.773   430.710   330.066     1.394    -3.798     4.109
  8102.245   370.780   334.523     0.861    -5.201     4.053
  9244.679   316.720   338.195     0.504    -4.340     0.553
 10391.140   268.820   341.231     0.209    -3.404    -2.612
 11527.424   226.980   343.339     0.080    -3.406    -3.462
 12642.896   190.820   344.744     0.030    -4.750    -3.781
 13731.319   159.870   347.471     0.011    -6.826    -2.635
 14797.879   133.550   354.884     0.006    -7.414    -0.250
 15858.476   111.290   370.984     0.005    -5.440     2.962
 16929.229    92.560   393.243     0.008    -2.706     3.713
 261.625,  19,  1012.  day,levels,pres0
   181.826   991.250   297.669    16.972     3.256     3.060
   594.304   945.500   298.767    15.222     4.215     2.795
  1080.032   893.790   300.764    13.401     4.341     2.329
  1650.547   836.060   303.559    11.707     3.722     2.232
  2314.933   772.820   307.081     9.813     2.661     3.769
  3077.353   705.220   310.635     7.587     1.004     4.954
  3935.124   635.050   314.337     5.980    -0.276     4.221
  4880.511   564.480   318.960     4.219    -0.557     3.638
  5901.524   495.730   324.440     2.537    -1.363     3.565
  6982.178   430.710   329.955     1.376    -3.920     4.533
  8103.366   370.780   334.479     0.828    -5.021     4.739
  9245.927   316.720   338.326     0.501    -3.725     0.974
 10392.900   268.820   341.405     0.212    -3.487    -2.550
 11529.829   226.980   343.553     0.080    -4.051    -2.975
 12646.132   190.820   345.044     0.029    -5.769    -2.577
 13735.600   159.870   347.836     0.011    -7.603    -0.902
 14803.677   133.550   355.525     0.006    -7.223     2.265
 15865.741   111.290   371.339     0.006    -4.264     5.205
 16936.352    92.560   392.765     0.007    -1.894     4.283
 261.75,  19,  1012.  day,levels,pres0
   181.847   991.250   297.687    17.060     2.570     2.963
   594.398   945.500   298.815    15.361     3.360     2.658
  1080.323   893.790   300.916    13.497     3.442     1.961
  1651.206   836.060   303.783    11.698     3.198     1.670
  2315.952   772.820   307.209     9.702     2.408     3.222
  3078.572   705.220   310.705     7.498     1.019     4.854
  3936.343   635.050   314.307     5.852     0.029     4.362
  4881.486   564.480   318.872     4.115    -0.507     3.631
  5902.107   495.730   324.304     2.521    -1.480     3.297
  6981.999   430.710   329.635     1.348    -3.944     4.384
  8102.262   370.780   334.266     0.785    -4.531     4.534
  9244.003   316.720   338.064     0.503    -3.145     0.885
 10389.697   268.820   340.901     0.220    -3.723    -2.084
 11524.909   226.980   343.019     0.083    -4.578    -2.011
 12639.880   190.820   344.762     0.030    -6.216    -1.173
 13728.568   159.870   347.624     0.012    -7.708     0.632
 14796.113   133.550   355.388     0.006    -6.170     4.054
 15857.661   111.290   371.120     0.006    -2.573     6.584
 16926.979    92.560   392.048     0.007    -1.201     4.027
 261.875,  19,  1012.  day,levels,pres0
   181.875   991.250   297.709    17.191     2.002     3.504
   594.454   945.500   298.779    15.528     2.491     3.122
  1080.459   893.790   300.998    13.636     2.382     2.227
  1651.618   836.060   303.954    11.771     2.263     1.482
  2316.647   772.820   307.305     9.586     1.712     2.390
  3079.423   705.220   310.788     7.330     0.620     4.152
  3937.278   635.050   314.341     5.712     0.012     3.965
  4882.421   564.480   318.897     3.945    -0.508     3.062
  5902.775   495.730   324.148     2.487    -1.604     2.562
  6981.970   430.710   329.399     1.221    -4.003     4.026
  8101.375   370.780   334.034     0.717    -4.488     4.139
  9241.890   316.720   337.581     0.509    -3.296     0.724
 10385.496   268.820   340.138     0.228    -4.042    -1.151
 11517.829   226.980   342.042     0.084    -4.831    -0.508
 12629.756   190.820   343.863     0.031    -6.160     0.483
 13716.010   159.870   346.981     0.012    -7.478     2.030
 14781.414   133.550   354.619     0.006    -5.244     4.965
 15840.853   111.290   370.450     0.006    -1.213     6.868
 16907.982    92.560   391.153     0.007    -0.935     3.493
 262.,  19,  1012.  day,levels,pres0
   181.880   991.250   297.719    17.187     1.415     4.365
   594.429   945.500   298.712    15.606     1.727     3.835
  1080.393   893.790   300.979    13.755     1.690     2.776
  1651.581   836.060   303.968    11.847     1.427     1.466
  2316.660   772.820   307.353     9.426     0.937     1.685
  3079.480   705.220   310.885     6.910     0.136     3.304
  3937.370   635.050   314.414     5.378     0.017     3.368
  4882.539   564.480   318.960     3.663    -0.420     2.290
  5902.623   495.730   323.989     2.367    -1.723     1.584
  6981.349   430.710   329.345     0.995    -3.999     3.702
  8100.362   370.780   333.920     0.621    -4.494     3.794
  9239.857   316.720   337.110     0.495    -3.431     0.541
 10381.729   268.820   339.583     0.219    -4.141    -0.265
 11512.045   226.980   341.381     0.082    -4.836     0.819
 12621.707   190.820   343.126     0.031    -5.737     1.532
 13706.140   159.870   346.569     0.012    -6.641     2.976
 14770.420   133.550   354.294     0.006    -4.354     5.344
 15829.320   111.290   370.415     0.006    -0.548     6.382
 16895.660    92.560   390.612     0.007    -1.272     3.116
 262.125,  19,  1012.  day,levels,pres0
   181.929   991.250   297.805    17.155     0.876     5.150
   594.495   945.500   298.670    15.532     1.037     4.429
  1080.279   893.790   300.807    13.775     1.131     3.212
  1651.168   836.060   303.803    11.938     0.884     1.672
  2316.015   772.820   307.314     9.296     0.318     1.328
  3078.919   705.220   311.085     6.564    -0.361     2.652
  3937.089   635.050   314.539     5.080     0.007     2.705
  4882.353   564.480   319.001     3.422    -0.398     1.566
  5902.274   495.730   323.916     2.236    -1.741     0.949
  6980.928   430.710   329.429     0.864    -3.828     3.232
  8100.005   370.780   333.905     0.589    -4.168     3.296
  9238.889   316.720   336.767     0.478    -3.181     0.489
 10379.633   268.820   339.265     0.207    -3.726     0.611
 11509.023   226.980   341.146     0.079    -4.699     1.693
 12618.146   190.820   343.032     0.030    -5.538     1.904
 13702.740   159.870   346.773     0.011    -5.648     3.389
 14767.982   133.550   354.729     0.006    -3.158     5.182
 15827.652   111.290   370.497     0.005    -0.542     5.585
 16893.152    92.560   389.910     0.006    -2.277     3.164
 262.25,  19,  1012.  day,levels,pres0
   182.023   991.250   297.970    17.087     0.464     5.663
   594.728   945.500   298.745    15.376     0.368     4.997
  1080.514   893.790   300.776    13.691     0.515     3.472
  1651.274   836.060   303.712    11.941     0.262     1.740
  2316.030   772.820   307.349     9.146    -0.286     1.184
  3079.267   705.220   311.400     6.305    -0.784     2.362
  3937.995   635.050   314.713     4.894    -0.168     2.284
  4883.586   564.480   319.109     3.277    -0.549     1.092
  5903.761   495.730   324.031     2.065    -1.713     0.653
  6982.744   430.710   329.567     0.773    -3.863     2.708
  8102.032   370.780   333.913     0.558    -4.008     2.950
  9240.792   316.720   336.699     0.435    -2.832     0.886
 10381.376   268.820   339.252     0.187    -3.084     1.491
 11510.929   226.980   341.266     0.075    -4.240     2.084
 12620.787   190.820   343.373     0.029    -5.500     1.996
 13706.884   159.870   347.395     0.011    -5.072     3.407
 14774.316   133.550   355.554     0.006    -2.379     4.602
 15835.029   111.290   370.359     0.005    -0.811     4.690
 16899.994    92.560   389.663     0.006    -3.202     3.335
 262.375,  19,  1012.  day,levels,pres0
   182.173   991.250   298.228    17.026     0.192     5.934
   595.182   945.500   298.948    15.318    -0.070     5.347
  1081.245   893.790   300.953    13.546    -0.182     3.536
  1652.171   836.060   303.769    11.762    -0.632     1.840
  2317.070   772.820   307.517     8.829    -1.165     1.128
  3080.771   705.220   311.727     6.002    -1.284     2.120
  3940.180   635.050   314.976     4.706    -0.518     1.982
  4886.542   564.480   319.427     3.135    -0.826     0.827
  5907.773   495.730   324.441     1.891    -1.816     0.506
  6987.928   430.710   329.910     0.719    -4.311     2.288
  8108.229   370.780   334.187     0.523    -4.303     2.740
  9248.063   316.720   337.080     0.374    -2.660     1.716
 10389.776   268.820   339.557     0.166    -2.696     1.976
 11520.463   226.980   341.651     0.069    -3.791     2.126
 12632.122   190.820   344.109     0.028    -5.679     2.126
 13720.869   159.870   348.350     0.011    -5.285     3.225
 14790.919   133.550   356.316     0.006    -2.402     3.884
 15852.465   111.290   370.142     0.005    -1.386     3.987
 16917.734    92.560   390.115     0.006    -3.797     3.138
 262.5,  19,  1012.  day,levels,pres0
   182.306   991.250   298.436    17.074     0.112     5.940
   595.577   945.500   299.096    15.392    -0.190     5.400
  1081.871   893.790   301.087    13.487    -0.512     3.574
  1652.979   836.060   303.862    11.638    -1.106     1.810
  2318.082   772.820   307.670     8.638    -1.719     0.955
  3082.153   705.220   311.944     5.826    -1.703     1.682
  3942.058   635.050   315.175     4.596    -0.770     1.526
  4889.021   564.480   319.669     3.055    -0.991     0.507
  5911.160   495.730   324.802     1.823    -1.945     0.098
  6992.392   430.710   330.216     0.712    -4.809     1.807
  8113.719   370.780   334.494     0.507    -4.413     2.414
  9254.736   316.720   337.484     0.329    -2.593     2.264
 10397.564   268.820   339.823     0.147    -2.772     2.261
 11529.332   226.980   342.044     0.064    -3.920     2.141
 12642.580   190.820   344.702     0.027    -6.531     2.299
 13733.275   159.870   348.998     0.011    -6.251     3.317
 14804.628   133.550   356.515     0.006    -2.788     3.184
 15866.146   111.290   369.913     0.004    -1.972     3.476
 16932.123    92.560   390.876     0.006    -4.341     2.660
 262.625,  19,  1012.  day,levels,pres0
   182.366   991.250   298.507    17.224     0.111     5.844
   595.733   945.500   299.110    15.535    -0.078     5.434
  1082.046   893.790   301.050    13.601    -0.401     3.615
  1653.121   836.060   303.815    11.781    -1.011     1.715
  2318.135   772.820   307.577     8.807    -1.719     0.742
  3082.033   705.220   311.861     5.844    -1.859     1.165
  3941.866   635.050   315.195     4.640    -0.576     0.820
  4889.038   564.480   319.773     3.100    -0.753    -0.220
  5911.694   495.730   325.015     1.840    -2.037    -0.705
  6993.672   430.710   330.445     0.746    -5.002     1.001
  8115.775   370.780   334.720     0.501    -4.266     1.813
  9257.554   316.720   337.715     0.298    -2.823     2.281
 10400.940   268.820   339.929     0.134    -3.371     2.319
 11533.223   226.980   342.255     0.060    -4.989     2.015
 12646.891   190.820   344.747     0.025    -7.887     2.284
 13737.389   159.870   348.822     0.011    -6.778     3.093
 14808.190   133.550   356.328     0.006    -2.844     2.601
 15869.639   111.290   370.060     0.004    -2.382     3.108
 16936.332    92.560   391.244     0.006    -5.071     2.383
 262.75,  19,  1012.  day,levels,pres0
   182.340   991.250   298.442    17.351     0.003     5.868
   595.640   945.500   299.030    15.672    -0.072     5.444
  1081.792   893.790   300.875    13.771    -0.196     3.507
  1652.529   836.060   303.571    11.949    -0.617     1.449
  2317.021   772.820   307.259     9.080    -1.447     0.491
  3080.273   705.220   311.577     5.990    -1.782     0.770
  3939.592   635.050   315.043     4.828    -0.328     0.108
  4886.589   564.480   319.739     3.281    -0.638    -1.230
  5909.319   495.730   325.033     1.979    -2.270    -1.773
  6991.554   430.710   330.538     0.835    -5.133     0.129
  8113.864   370.780   334.725     0.522    -4.312     1.234
  9255.591   316.720   337.673     0.298    -3.261     2.224
 10398.746   268.820   339.833     0.135    -3.870     2.129
 11530.644   226.980   342.117     0.061    -6.187     1.597
 12643.499   190.820   344.378     0.025    -9.182     1.958
 13732.615   159.870   348.310     0.010    -7.121     2.621
 14802.345   133.550   356.143     0.006    -3.068     2.259
 15863.947   111.290   370.364     0.004    -2.942     2.990
 16930.658    92.560   390.937     0.006    -5.606     2.321
 262.875,  19,  1012.  day,levels,pres0
   182.271   991.250   298.318    17.416    -0.355     5.957
   595.488   945.500   299.011    15.744    -0.336     5.459
  1081.584   893.790   300.802    13.813    -0.120     3.394
  1652.162   836.060   303.455    12.013    -0.279     1.006
  2316.448   772.820   307.152     9.199    -1.201     0.217
  3079.406   705.220   311.372     6.257    -1.740     0.424
  3938.494   635.050   314.983     5.075    -0.465    -0.546
  4885.435   564.480   319.659     3.562    -1.082    -2.223
  5907.990   495.730   324.919     2.125    -2.922    -2.650
  6989.920   430.710   330.421     0.921    -5.374    -0.412
  8111.615   370.780   334.449     0.556    -4.472     1.165
  9252.250   316.720   337.293     0.319    -3.523     2.443
 10394.207   268.820   339.496     0.150    -4.179     1.968
 11524.813   226.980   341.668     0.067    -7.135     1.260
 12636.041   190.820   343.819     0.026   -10.167     1.763
 13723.739   159.870   347.972     0.011    -7.410     2.447
 14793.063   133.550   356.224     0.006    -3.634     2.431
 15855.084   111.290   370.572     0.005    -3.577     3.052
 16921.127    92.560   390.228     0.006    -5.631     2.360
 263.,  19,  1012.  day,levels,pres0
   182.210   991.250   298.222    17.389    -0.470     6.033
   595.334   945.500   298.982    15.718    -0.503     5.605
  1081.408   893.790   300.804    13.847    -0.112     3.383
  1652.047   836.060   303.503    12.062    -0.158     0.808
  2316.459   772.820   307.193     9.293    -1.104     0.029
  3079.478   705.220   311.328     6.435    -1.768     0.163
  3938.559   635.050   314.973     5.157    -0.740    -0.767
  4885.500   564.480   319.648     3.581    -1.419    -2.603
  5907.813   495.730   324.759     2.178    -3.346    -3.010
  6989.136   430.710   330.194     0.957    -5.591    -0.571
  8109.876   370.780   334.099     0.565    -4.526     1.407
  9249.177   316.720   336.852     0.325    -3.618     2.562
 10389.701   268.820   339.085     0.165    -4.410     1.826
 11518.956   226.980   341.262     0.072    -7.564     1.144
 12628.887   190.820   343.423     0.028   -10.709     1.764
 13715.786   159.870   347.866     0.011    -7.709     2.459
 14785.227   133.550   356.415     0.006    -3.957     2.566
 15847.912   111.290   370.838     0.005    -3.897     3.136
 16913.646    92.560   389.722     0.007    -5.616     2.478
