 day sst(K) H(W/m2) LE(W/m2) TAU(m2/s2)
17.125   301.886  21.0067  267.623   0
17.25   303.308  15.7267  250.923   0
17.375   302.578  0.63  151.427   0
17.5   301.736  -4.14667  124.203   0
17.625   301.542  -4.26  120.67   0
17.75   301.26  -1.65333  124.157   0
17.875   301.224  0.443333  120.667   0
18   303.755  10.6167  185.583   0
18.125   306.558  31.7067  275.117   0
18.25   305.356  23.4867  270.823   0
18.375   302.428  -1.49667  153   0
18.5   301.537  -5.31667  113.007   0
18.625   301.162  -5.17333  113.653   0
18.75   300.589  -2.73667  117.757   0
18.875   300.948  1.57  114.213   0
19   302.644  8.67667  169.687   0
19.125   306.571  32.1567  265.113   0
19.25   307  24.21  244.117   0
19.375   302.96  0.226667  145.493   0
19.5   301.762  -1.3  108.033   0
19.625   301.627  0.21  106.023   0
19.75   301.409  4.68333  98.02   0
19.875   301.555  4.74  95   0
20   303.842  22.93  162.287   0
20.125   306.029  44.51  257.84   0
20.25   301.981  26.5033  225.46   0
20.375   299.45  7.51667  90.9667   0
20.5   298.958  6.05333  70.8833   0
20.625   299.173  6.68333  61.5133   0
20.75   299.56  7.26667  56.28   0
20.875   300.018  7.92333  58.24   0
21   302.59  28.1367  142.467   0
21.125   305.171  47.37  244.233   0
21.25   302.181  27.7133  209.9   0
21.375   300.771  8.86333  90.13   0
21.5   299.988  6.27333  62.1367   0
21.625   299.944  5.15667  65.41   0
21.75   299.587  5.29  75.8967   0
21.875   298.846  6.33  74.17   0
22   301.375  23.27  159.793   0
22.125   305.824  33.5967  272.903   0
22.25   305.213  27.2267  240.513   0
22.375   301.531  6.01333  116.183   0
22.5   299.673  3.89333  84.5233   0
22.625   299.098  3.11667  82.98   0
22.75   298.86  5.16  83.1867   0
22.875   299.272  4.63333  79.34   0
23   301.337  29.28  153.77   0
23.125   307.478  72.5933  252.11   0
23.25   305.207  30.9067  218.603   0
23.375   302.303  6.96333  95.59   0
23.5   300.78  6.31  73.06   0
23.625   300.291  5.78333  68.3533   0
23.75   300.065  6.11333  66.3433   0
23.875   299.309  6.04667  69.5467   0
24   300.429  29.67  173.687   0
24.125   302.541  44.13  280.537   0
24.25   302.449  16.3033  203.713   0
24.375   300.689  4.78667  58.84   0
24.5   299.718  0.0933334  45.6433   0
24.625   300.003  -9.83667  73.83   0
24.75   300.052  0.613333  93.34   0
24.875   299.583  -1.34333  104.5   0
25   301.708  19.8867  147.42   0
25.125   306.097  52.2433  267.143   0
25.25   307.022  29.8733  236.84   0
25.375   303.203  5.51667  150.55   0
25.5   301.154  -9.10667  109.69   0
25.625   300.92  -6.45667  125.36   0
25.75   300.879  0.62  120.5   0
25.875   300.725  0.946667  122.32   0
26   303.936  17.0433  180.907   0
26.125   306.947  54.5133  274.867   0
26.25   305.958  37.3933  239.547   0
26.375   302.956  8.66667  158.487   0
26.5   300.635  -10.2367  85.2067   0
26.625   299.957  -5.15667  98.5533   0
26.75   300.257  -6.11333  113.847   0
26.875   300.381  -16.4033  174.583   0
27   303.497  16.03  195.43   0
27.125   306.992  46.0567  270.213   0
27.25   306.638  39.5233  245.37   0
27.375   302.971  10.34  168.107   0
27.5   301.112  -6.08  117.7   0
27.625   300.609  -1.76333  137.413   0
27.75   300.221  -8.59  143.553   0
27.875   300.49  -7.46  146.42   0
28   303.497  17.0533  205.08   0
28.125   307.682  64.7933  287.053   0
28.25   307.495  63.49  281.843   0
28.375   303.055  3.68333  183.937   0
28.5   301.036  -12.5267  111.4   0
28.625   300.521  -4.12  121.37   0
28.75   300.347  1.13667  128.783   0
28.875   300.602  -3.14  86.9467   0
29   303.147  25.54  205.267   0
29.125   306.465  75.5933  270.947   0
29.25   304.991  54.0633  264.78   0
29.375   302.769  5.35667  170.273   0
29.5   300.86  -6.02667  126.897   0
29.625   300.468  -4.27  135.947   0
29.75   300.402  -5.89  131.717   0
29.875   300.188  -2.62333  105.637   0
30   303.435  40.5533  236.753   0
30.125   308.315  89.0833  337.04   0
30.25   308.585  55.9233  270.587   0
30.375   303.293  11.21  170.527   0
30.5   300.564  -4.34333  164.447   0
30.625   300.977  -5.33  159.81   0
30.75   300.503  -8.94667  171.333   0
30.875   300.673  -4.09333  133.167   0
31   303.999  20.47  197.07   0
31.125   309.04  29.67  284.083   0
31.25   306.816  35.8367  245.787   0
31.375   302.963  4.33333  156.257   0
31.5   300.351  -12.0567  106.703   0
31.625   300.388  -13.1267  99.9433   0
31.75   299.314  -11.0767  112.4   0
31.875   299.941  -8.84667  116.18   0
32   304.085  10.75  170.957   0
32.125   305.082  55.9233  269.167   0
32.25   302.874  71.89  273.027   0
32.375   301.39  8.48667  148.267   0
32.5   300.367  -8.91333  96.8133   0
32.625   299.928  -6.09667  104.113   0
32.75   299.846  -5.30667  103.887   0
32.875   300.064  -5.27  106.57   0
33   303.53  34.16  189.877   0
33.125   305.757  82.8567  291.98   0
33.25   307.914  73.59  276.193   0
33.375   304.494  14.97  149.64   0
33.5   301.203  -4.21333  93.44   0
33.625   300.844  -2.47333  90.6533   0
33.75   300.363  0.14  93.8667   0
33.875   299.984  3.31  83.41   0
34   305.535  43.3267  164.737   0
34.125   311.244  98.7067  287.107   0
34.25   310.312  96.9867  294.797   0
34.375   304.533  11.9733  153.023   0
34.5   301.498  -3.89667  87.45   0
34.625   300.628  -1.17  90.4733   0
34.75   300.019  0.346667  89.31   0
34.875   299.454  2.61  79.6033   0
35   305.491  48.8867  185.867   0
35.125   311.591  111.19  301.72   0
35.25   311.468  89.53  268.933   0
35.375   305.414  20.5067  155   0
35.5   301.247  0.593333  99.0033   0
35.625   300.727  1.48  98.9333   0
35.75   300.238  3.36667  101.023   0
35.875   300.104  6.19333  95.79   0
36   305.477  40.4433  170.1   0
36.125   311.368  81.5267  266.073   0
36.25   310.829  71.46  262.75   0
36.375   304.768  18.74  144.363   0
36.5   301.663  -0.136667  132.643   0
36.625   300.902  2.12667  62.73   0
36.75   300.268  5.8  72.6567   0
36.875   299.919  6.65  58.58   0
37   305.745  32.1333  140.86   0
37.125   311.403  64.88  212.027   0
37.25   308.81  40.7867  230.67   0
37.375   305.503  11.99  118.77   0
37.5   301.176  3.81667  59.8633   0
37.625   300.267  2.73  55.7867   0
37.75   300.039  4.79667  52.1833   0
37.875   300.264  3.65  51.6033   0
38   306.782  30.2667  132.253   0
38.125   312.653  69.92  236.853   0
38.25   309.371  61.02  268.347   0
38.375   302.461  15.56  128.017   0
38.5   300.765  2.32  67.3367   0
38.625   300.482  3.37667  75.27   0
38.75   300.104  6.68  52.99   0
38.875   299.664  4.39333  38.96   0
39   305.907  40.1567  137.547   0
39.125   311.209  73.54  247.55   0
39.25   312.066  64.6433  236.887   0
39.375   305.362  14.4633  116.337   0
39.5   302.522  1.68667  57.2133   0
39.625   301.581  -0.586667  66.6933   0
39.75   301.081  7.07333  50.98   0
39.875   300.917  7.68333  50.27   0
40   307.443  36.4067  150.607   0
40.125   312.257  71.1067  277.123   0
40.25   309.113  62.4  249.98   0
40.375   304.744  20.54  129.433   0
40.5   302.286  6.26333  61.74   0
40.625   301.671  6.65667  63.4667   0
40.75   300.295  13.3  75.7533   0
40.875   300.524  18.52  84.63   0
41   307.808  31.9533  118.647   0
41.125   313.692  78.7667  279.673   0
41.25   312.366  57.1  256.257   0
41.375   304.268  8.80333  132.883   0
41.5   302.246  -2.18  73.53   0
41.625   301.564  -3.38  50.6267   0
41.75   301.293  -0.216667  42.4733   0
41.875   300.908  -2.88333  33.33   0
42   305.585  29.0633  132.097   0
42.125   312.788  87.1067  252.303   0
42.25   311.846  53.42  255.963   0
42.375   306.141  9.01667  131.72   0
42.5   302.649  -1.64667  56.0133   0
42.625   301.979  1.34  49.0167   0
42.75   301.416  -0.503333  38.55   0
42.875   300.438  -1.23  49.76   0
43   301.653  24.5733  110.96   0
43.125   307.965  79.4733  293.643   0
43.25   310.391  46.8533  266.387   0
43.375   304.451  -6.07667  119.39   0
43.5   302.14  -2.64667  49.7333   0
43.625   301.656  1.29667  62.8233   0
43.75   300.811  -4.00667  67.8567   0
43.875   299.836  -3.05667  67.7367   0
